title:firstRecord, start timestamp:1673442414.034679, stop timestamp:1673442424.097179, headset type:EPOCX, headset serial:DCB36C84, headset firmware:710, channels:55, sampling rate:eeg_128, samples:1289      , version:2.1, 
Timestamp,EEG.Counter,EEG.Interpolated,EEG.AF3,EEG.F7,EEG.F3,EEG.FC5,EEG.T7,EEG.P7,EEG.O1,EEG.O2,EEG.P8,EEG.T8,EEG.FC6,EEG.F4,EEG.F8,EEG.AF4,EEG.RawCq,EEG.Battery,EEG.BatteryPercent,MarkerIndex,MarkerType,MarkerValueInt,EEG.MarkerHardware,CQ.AF3,CQ.F7,CQ.F3,CQ.FC5,CQ.T7,CQ.P7,CQ.O1,CQ.O2,CQ.P8,CQ.T8,CQ.FC6,CQ.F4,CQ.F8,CQ.AF4,CQ.Overall,EQ.SampleRateQuality,EQ.OVERALL,EQ.AF3,EQ.F7,EQ.F3,EQ.FC5,EQ.T7,EQ.P7,EQ.O1,EQ.O2,EQ.P8,EQ.T8,EQ.FC6,EQ.F4,EQ.F8,EQ.AF4
1673442414.034679,102.000000,0.000000,4362.179688,4342.179688,4362.563965,4361.922852,4390.897461,4340.641113,4334.743652,4333.717773,4307.948730,4294.743652,4502.307617,4445.512695,4409.615234,4473.205078,0.000000,3.000000,80.000000,,,,0.000000,4.000000,4.000000,4.000000,4.000000,4.000000,4.000000,4.000000,4.000000,4.000000,4.000000,4.000000,4.000000,4.000000,4.000000,100.000000,,,,,,,,,,,,,,,,
1673442414.042492,103.000000,0.000000,4365.256348,4346.153809,4367.563965,4365.000000,4391.410156,4340.000000,4335.897461,4332.051270,4314.743652,4297.692383,4501.922852,4446.025879,4412.307617,4477.051270,0.000000,3.000000,80.000000,,,,0.000000,4.000000,4.000000,4.000000,4.000000,4.000000,4.000000,4.000000,4.000000,4.000000,4.000000,4.000000,4.000000,4.000000,4.000000,100.000000,,,,,,,,,,,,,,,,
1673442414.050304,104.000000,0.000000,4361.025879,4342.563965,4365.897461,4364.358887,4388.333496,4338.717773,4339.743652,4329.487305,4316.538574,4297.051270,4490.512695,4443.461426,4405.000000,4472.436035,0.000000,3.000000,80.000000,,,,0.000000,4.000000,4.000000,4.000000,4.000000,4.000000,4.000000,4.000000,4.000000,4.000000,4.000000,4.000000,4.000000,4.000000,4.000000,100.000000,,,,,,,,,,,,,,,,
1673442414.058117,105.000000,0.000000,4357.692383,4341.025879,4364.102539,4367.820313,4392.179688,4337.563965,4337.307617,4323.461426,4309.102539,4289.743652,4487.692383,4438.846191,4399.230957,4469.230957,0.000000,3.000000,80.000000,,,,0.000000,4.000000,4.000000,4.000000,4.000000,4.000000,4.000000,4.000000,4.000000,4.000000,4.000000,4.000000,4.000000,4.000000,4.000000,100.000000,,,,,,,,,,,,,,,,
1673442414.065929,106.000000,0.000000,4363.846191,4345.384766,4364.102539,4372.307617,4400.512695,4340.384766,4333.205078,4321.794922,4303.717773,4280.769043,4491.282227,4435.128418,4399.102539,4472.051270,0.000000,3.000000,80.000000,,,,0.000000,4.000000,4.000000,4.000000,4.000000,4.000000,4.000000,4.000000,4.000000,4.000000,4.000000,4.000000,4.000000,4.000000,4.000000,100.000000,,,,,,,,,,,,,,,,
1673442414.073742,107.000000,0.000000,4365.641113,4348.205078,4357.948730,4367.307617,4399.615234,4343.205078,4333.077148,4325.128418,4302.820313,4280.512695,4489.487305,4432.436035,4397.563965,4472.948730,0.000000,3.000000,80.000000,,,,0.000000,4.000000,4.000000,4.000000,4.000000,4.000000,4.000000,4.000000,4.000000,4.000000,4.000000,4.000000,4.000000,4.000000,4.000000,100.000000,,,,,,,,,,,,,,,,
1673442414.081554,108.000000,0.000000,4358.333496,4345.641113,4352.307617,4361.538574,4395.128418,4339.358887,4329.487305,4320.897461,4303.205078,4286.153809,4485.769043,4426.794922,4395.256348,4465.897461,0.000000,3.000000,80.000000,,,,0.000000,4.000000,4.000000,4.000000,4.000000,4.000000,4.000000,4.000000,4.000000,4.000000,4.000000,4.000000,4.000000,4.000000,4.000000,100.000000,,,,,,,,,,,,,,,,
1673442414.089367,109.000000,0.000000,4356.666504,4347.051270,4354.102539,4366.282227,4400.769043,4332.436035,4323.717773,4315.769043,4303.846191,4293.589844,4489.615234,4425.000000,4401.282227,4464.230957,0.000000,3.000000,80.000000,,,,0.000000,4.000000,4.000000,4.000000,4.000000,4.000000,4.000000,4.000000,4.000000,4.000000,4.000000,4.000000,4.000000,4.000000,4.000000,100.000000,,,,,,,,,,,,,,,,
1673442414.097179,110.000000,0.000000,4363.205078,4355.769043,4357.436035,4371.794922,4408.205078,4334.743652,4327.820313,4321.666504,4305.769043,4299.358887,4495.128418,4432.436035,4413.717773,4473.589844,0.000000,3.000000,80.000000,,,,0.000000,4.000000,4.000000,4.000000,4.000000,4.000000,4.000000,4.000000,4.000000,4.000000,4.000000,4.000000,4.000000,4.000000,4.000000,100.000000,,,,,,,,,,,,,,,,
1673442414.104992,111.000000,0.000000,4365.256348,4358.461426,4355.256348,4371.410156,4404.615234,4340.769043,4332.307617,4324.743652,4312.179688,4299.230957,4496.410156,4433.717773,4415.384766,4476.410156,0.000000,3.000000,80.000000,,,,0.000000,4.000000,4.000000,4.000000,4.000000,4.000000,4.000000,4.000000,4.000000,4.000000,4.000000,4.000000,4.000000,4.000000,4.000000,100.000000,,,,,,,,,,,,,,,,
1673442414.112804,112.000000,0.000000,4362.820313,4354.615234,4353.717773,4370.897461,4396.153809,4340.384766,4327.307617,4324.358887,4317.307617,4300.641113,4496.538574,4432.436035,4414.230957,4470.769043,0.000000,3.000000,80.000000,,,,0.000000,4.000000,4.000000,4.000000,4.000000,4.000000,4.000000,4.000000,4.000000,4.000000,4.000000,4.000000,4.000000,4.000000,4.000000,100.000000,,,,,,,,,,,,,,,,
1673442414.120617,113.000000,0.000000,4364.358887,4355.128418,4357.051270,4373.846191,4393.333496,4341.922852,4327.820313,4332.948730,4321.025879,4306.922852,4504.358887,4439.615234,4421.794922,4474.230957,0.000000,3.000000,80.000000,,,,0.000000,4.000000,4.000000,4.000000,4.000000,4.000000,4.000000,4.000000,4.000000,4.000000,4.000000,4.000000,4.000000,4.000000,4.000000,100.000000,,,,,,,,,,,,,,,,
1673442414.128429,114.000000,0.000000,4366.025879,4356.410156,4361.153809,4377.948730,4394.358887,4350.128418,4335.512695,4339.871582,4327.563965,4310.128418,4510.769043,4447.179688,4425.769043,4481.282227,0.000000,3.000000,80.000000,,,,0.000000,4.000000,4.000000,4.000000,4.000000,4.000000,4.000000,4.000000,4.000000,4.000000,4.000000,4.000000,4.000000,4.000000,4.000000,100.000000,,,,,,,,,,,,,,,,
1673442414.136242,115.000000,0.000000,4361.666504,4352.051270,4357.692383,4374.615234,4393.846191,4353.589844,4337.948730,4336.410156,4329.358887,4303.333496,4502.436035,4445.256348,4417.948730,4473.717773,0.000000,3.000000,80.000000,,,,0.000000,4.000000,4.000000,4.000000,4.000000,4.000000,4.000000,4.000000,4.000000,4.000000,4.000000,4.000000,4.000000,4.000000,4.000000,100.000000,,,,,,,,,,,,,,,,
1673442414.144054,116.000000,0.000000,4352.563965,4347.436035,4350.000000,4363.077148,4392.307617,4347.179688,4336.538574,4329.487305,4321.666504,4295.128418,4488.846191,4433.974121,4405.769043,4462.307617,0.000000,3.000000,80.000000,,,,0.000000,4.000000,4.000000,4.000000,4.000000,4.000000,4.000000,4.000000,4.000000,4.000000,4.000000,4.000000,4.000000,4.000000,4.000000,100.000000,,,,,,,,,,,,,,,,
1673442414.151867,117.000000,0.000000,4346.922852,4344.102539,4346.794922,4356.410156,4390.000000,4342.692383,4339.743652,4327.179688,4313.333496,4293.461426,4486.410156,4425.256348,4400.641113,4457.179688,0.000000,3.000000,80.000000,,,,0.000000,4.000000,4.000000,4.000000,4.000000,4.000000,4.000000,4.000000,4.000000,4.000000,4.000000,4.000000,4.000000,4.000000,4.000000,100.000000,,,,,,,,,,,,,,,,
1673442414.159679,118.000000,0.000000,4349.487305,4340.512695,4347.563965,4362.051270,4384.487305,4343.846191,4341.410156,4330.641113,4314.102539,4292.563965,4490.000000,4430.512695,4401.025879,4459.358887,0.000000,3.000000,80.000000,,,,0.000000,4.000000,4.000000,4.000000,4.000000,4.000000,4.000000,4.000000,4.000000,4.000000,4.000000,4.000000,4.000000,4.000000,4.000000,100.000000,,,,,,,,,,,,,,,,
1673442414.167492,119.000000,0.000000,4356.153809,4345.512695,4351.922852,4368.461426,4387.179688,4344.230957,4341.410156,4336.153809,4322.948730,4299.102539,4495.769043,4442.948730,4404.358887,4467.436035,0.000000,3.000000,80.000000,,,,0.000000,4.000000,4.000000,4.000000,4.000000,4.000000,4.000000,4.000000,4.000000,4.000000,4.000000,4.000000,4.000000,4.000000,4.000000,100.000000,,,,,,,,,,,,,,,,
1673442414.175304,120.000000,0.000000,4361.153809,4355.000000,4357.820313,4370.384766,4395.256348,4343.846191,4343.333496,4341.922852,4330.000000,4307.948730,4504.871582,4448.333496,4412.948730,4476.410156,0.000000,3.000000,80.000000,,,,0.000000,4.000000,4.000000,4.000000,4.000000,4.000000,4.000000,4.000000,4.000000,4.000000,4.000000,4.000000,4.000000,4.000000,4.000000,100.000000,,,,,,,,,,,,,,,,
1673442414.183117,121.000000,0.000000,4360.000000,4352.820313,4356.282227,4371.282227,4394.487305,4342.563965,4343.077148,4340.128418,4326.025879,4304.230957,4505.897461,4443.461426,4414.615234,4474.615234,0.000000,3.000000,80.000000,,,,0.000000,4.000000,4.000000,4.000000,4.000000,4.000000,4.000000,4.000000,4.000000,4.000000,4.000000,4.000000,4.000000,4.000000,4.000000,100.000000,,,,,,,,,,,,,,,,
1673442414.190929,122.000000,0.000000,4350.128418,4338.333496,4351.153809,4366.922852,4390.769043,4340.512695,4342.179688,4335.641113,4320.384766,4294.487305,4491.666504,4437.563965,4401.538574,4465.000000,0.000000,3.000000,80.000000,,,,0.000000,4.000000,4.000000,4.000000,4.000000,4.000000,4.000000,4.000000,4.000000,4.000000,4.000000,4.000000,4.000000,4.000000,4.000000,100.000000,,,,,,,,,,,,,,,,
1673442414.198742,123.000000,0.000000,4347.307617,4337.179688,4353.717773,4362.307617,4391.410156,4340.512695,4339.230957,4333.205078,4318.589844,4293.461426,4485.000000,4437.692383,4396.538574,4466.666504,0.000000,3.000000,80.000000,,,,0.000000,4.000000,4.000000,4.000000,4.000000,4.000000,4.000000,4.000000,4.000000,4.000000,4.000000,4.000000,4.000000,4.000000,4.000000,100.000000,,,,,,,,,,,,,,,,
1673442414.206554,124.000000,0.000000,4363.717773,4354.487305,4361.666504,4369.230957,4389.230957,4341.666504,4334.102539,4326.794922,4314.615234,4295.256348,4497.051270,4441.153809,4416.666504,4476.410156,0.000000,3.000000,80.000000,,,,0.000000,4.000000,4.000000,4.000000,4.000000,4.000000,4.000000,4.000000,4.000000,4.000000,4.000000,4.000000,4.000000,4.000000,4.000000,100.000000,,,,,,,,,,,,,,,,
1673442414.214367,125.000000,0.000000,4377.563965,4366.025879,4365.769043,4379.487305,4387.051270,4342.307617,4333.846191,4325.128418,4317.692383,4298.717773,4508.461426,4445.512695,4436.153809,4485.769043,0.000000,3.000000,80.000000,,,,0.000000,4.000000,4.000000,4.000000,4.000000,4.000000,4.000000,4.000000,4.000000,4.000000,4.000000,4.000000,4.000000,4.000000,4.000000,100.000000,,,,,,,,,,,,,,,,
1673442414.222179,126.000000,0.000000,4385.000000,4368.846191,4372.307617,4380.000000,4389.487305,4342.436035,4338.717773,4332.436035,4324.871582,4302.563965,4511.794922,4453.589844,4442.563965,4499.230957,0.000000,3.000000,80.000000,,,,0.000000,4.000000,4.000000,4.000000,4.000000,4.000000,4.000000,4.000000,4.000000,4.000000,4.000000,4.000000,4.000000,4.000000,4.000000,100.000000,,,,,,,,,,,,,,,,
1673442414.229992,127.000000,0.000000,4397.179688,4378.205078,4381.794922,4378.589844,4385.256348,4338.333496,4339.230957,4334.487305,4322.948730,4304.487305,4519.102539,4462.051270,4453.717773,4511.794922,0.000000,3.000000,80.000000,,,,0.000000,4.000000,4.000000,4.000000,4.000000,4.000000,4.000000,4.000000,4.000000,4.000000,4.000000,4.000000,4.000000,4.000000,4.000000,100.000000,,,,,,,,,,,,,,,,
1673442414.237804,0.000000,0.000000,4399.871582,4381.538574,4381.025879,4378.717773,4377.563965,4332.563965,4335.128418,4332.948730,4321.282227,4308.205078,4524.487305,4463.461426,4463.974121,4512.948730,0.000000,3.000000,80.000000,,,,0.000000,4.000000,4.000000,4.000000,4.000000,4.000000,4.000000,4.000000,4.000000,4.000000,4.000000,4.000000,4.000000,4.000000,4.000000,100.000000,,,,,,,,,,,,,,,,
1673442414.245617,1.000000,0.000000,4387.051270,4366.538574,4366.794922,4373.461426,4379.102539,4331.922852,4337.436035,4335.641113,4323.589844,4307.563965,4516.794922,4455.512695,4455.384766,4502.307617,0.000000,3.000000,80.000000,,,,0.000000,4.000000,4.000000,4.000000,4.000000,4.000000,4.000000,4.000000,4.000000,4.000000,4.000000,4.000000,4.000000,4.000000,4.000000,100.000000,,,,,,,,,,,,,,,,
1673442414.253429,2.000000,0.000000,4377.051270,4357.307617,4356.410156,4366.410156,4379.743652,4334.487305,4343.077148,4336.410156,4322.179688,4299.743652,4506.282227,4445.769043,4443.333496,4493.589844,0.000000,3.000000,80.000000,,,,0.000000,4.000000,4.000000,4.000000,4.000000,4.000000,4.000000,4.000000,4.000000,4.000000,4.000000,4.000000,4.000000,4.000000,4.000000,100.000000,1.000000,100.000000,4.000000,4.000000,4.000000,4.000000,4.000000,4.000000,4.000000,4.000000,4.000000,4.000000,4.000000,4.000000,4.000000,4.000000
1673442414.261242,3.000000,0.000000,4375.897461,4357.307617,4357.307617,4362.820313,4377.692383,4335.384766,4341.922852,4333.846191,4321.282227,4296.538574,4501.153809,4442.563965,4443.717773,4489.487305,0.000000,3.000000,80.000000,,,,0.000000,4.000000,4.000000,4.000000,4.000000,4.000000,4.000000,4.000000,4.000000,4.000000,4.000000,4.000000,4.000000,4.000000,4.000000,100.000000,,,,,,,,,,,,,,,,
1673442414.269054,4.000000,0.000000,4374.358887,4353.589844,4358.846191,4360.000000,4377.948730,4335.769043,4338.589844,4334.358887,4321.410156,4300.128418,4498.205078,4443.589844,4445.000000,4485.897461,0.000000,3.000000,80.000000,,,,0.000000,4.000000,4.000000,4.000000,4.000000,4.000000,4.000000,4.000000,4.000000,4.000000,4.000000,4.000000,4.000000,4.000000,4.000000,100.000000,,,,,,,,,,,,,,,,
1673442414.276867,5.000000,0.000000,4373.589844,4357.436035,4359.615234,4360.384766,4379.230957,4335.641113,4341.282227,4340.000000,4320.128418,4298.974121,4502.179688,4444.102539,4446.153809,4485.128418,0.000000,3.000000,80.000000,,,,0.000000,4.000000,4.000000,4.000000,4.000000,4.000000,4.000000,4.000000,4.000000,4.000000,4.000000,4.000000,4.000000,4.000000,4.000000,100.000000,,,,,,,,,,,,,,,,
1673442414.284679,6.000000,0.000000,4377.948730,4366.410156,4365.641113,4367.307617,4383.205078,4337.051270,4344.230957,4343.974121,4323.846191,4297.820313,4509.102539,4451.025879,4457.692383,4488.589844,0.000000,3.000000,80.000000,,,,0.000000,4.000000,4.000000,4.000000,4.000000,4.000000,4.000000,4.000000,4.000000,4.000000,4.000000,4.000000,4.000000,4.000000,4.000000,100.000000,,,,,,,,,,,,,,,,
1673442414.292492,7.000000,0.000000,4380.641113,4367.051270,4371.282227,4372.692383,4383.333496,4337.820313,4342.948730,4341.538574,4326.153809,4299.358887,4510.000000,4460.384766,4461.922852,4491.282227,0.000000,3.000000,80.000000,,,,0.000000,4.000000,4.000000,4.000000,4.000000,4.000000,4.000000,4.000000,4.000000,4.000000,4.000000,4.000000,4.000000,4.000000,4.000000,100.000000,,,,,,,,,,,,,,,,
1673442414.300304,8.000000,0.000000,4382.307617,4365.897461,4375.641113,4375.128418,4379.615234,4333.717773,4340.769043,4338.333496,4319.871582,4297.820313,4507.820313,4461.666504,4448.717773,4490.769043,0.000000,3.000000,80.000000,,,,0.000000,4.000000,4.000000,4.000000,4.000000,4.000000,4.000000,4.000000,4.000000,4.000000,4.000000,4.000000,4.000000,4.000000,4.000000,100.000000,,,,,,,,,,,,,,,,
1673442414.308117,9.000000,0.000000,4387.051270,4371.410156,4377.179688,4376.410156,4382.692383,4335.384766,4340.128418,4338.461426,4313.846191,4294.743652,4506.794922,4461.666504,4445.384766,4491.025879,0.000000,3.000000,80.000000,,,,0.000000,4.000000,4.000000,4.000000,4.000000,4.000000,4.000000,4.000000,4.000000,4.000000,4.000000,4.000000,4.000000,4.000000,4.000000,100.000000,,,,,,,,,,,,,,,,
1673442414.315929,10.000000,0.000000,4387.692383,4370.256348,4373.717773,4372.948730,4385.384766,4341.666504,4344.230957,4342.051270,4314.743652,4295.256348,4509.743652,4463.461426,4453.077148,4492.179688,0.000000,3.000000,80.000000,,,,0.000000,4.000000,4.000000,4.000000,4.000000,4.000000,4.000000,4.000000,4.000000,4.000000,4.000000,4.000000,4.000000,4.000000,4.000000,100.000000,,,,,,,,,,,,,,,,
1673442414.323742,11.000000,0.000000,4386.410156,4364.743652,4372.179688,4369.615234,4383.589844,4343.589844,4350.128418,4346.025879,4316.922852,4303.974121,4512.436035,4463.589844,4455.128418,4493.974121,0.000000,3.000000,80.000000,,,,0.000000,4.000000,4.000000,4.000000,4.000000,4.000000,4.000000,4.000000,4.000000,4.000000,4.000000,4.000000,4.000000,4.000000,4.000000,100.000000,,,,,,,,,,,,,,,,
1673442414.331554,12.000000,0.000000,4387.436035,4366.538574,4374.615234,4373.461426,4388.333496,4345.769043,4350.769043,4346.025879,4316.410156,4308.589844,4509.743652,4465.256348,4453.717773,4493.717773,0.000000,3.000000,80.000000,,,,0.000000,4.000000,4.000000,4.000000,4.000000,4.000000,4.000000,4.000000,4.000000,4.000000,4.000000,4.000000,4.000000,4.000000,4.000000,100.000000,,,,,,,,,,,,,,,,
1673442414.339367,13.000000,0.000000,4387.692383,4369.358887,4372.692383,4375.128418,4392.436035,4348.461426,4344.102539,4340.769043,4314.358887,4302.948730,4507.563965,4461.410156,4451.153809,4489.358887,0.000000,3.000000,80.000000,,,,0.000000,4.000000,4.000000,4.000000,4.000000,4.000000,4.000000,4.000000,4.000000,4.000000,4.000000,4.000000,4.000000,4.000000,4.000000,100.000000,,,,,,,,,,,,,,,,
1673442414.347179,14.000000,0.000000,4384.230957,4368.846191,4367.436035,4371.153809,4386.794922,4346.025879,4334.615234,4329.358887,4308.077148,4294.871582,4499.487305,4449.615234,4445.000000,4486.410156,0.000000,3.000000,80.000000,,,,0.000000,4.000000,4.000000,4.000000,4.000000,4.000000,4.000000,4.000000,4.000000,4.000000,4.000000,4.000000,4.000000,4.000000,4.000000,100.000000,,,,,,,,,,,,,,,,
1673442414.354992,15.000000,0.000000,4380.641113,4365.000000,4367.179688,4369.102539,4383.461426,4343.077148,4332.051270,4321.410156,4301.794922,4290.769043,4491.410156,4448.461426,4439.358887,4486.922852,0.000000,3.000000,80.000000,,,,0.000000,4.000000,4.000000,4.000000,4.000000,4.000000,4.000000,4.000000,4.000000,4.000000,4.000000,4.000000,4.000000,4.000000,4.000000,100.000000,,,,,,,,,,,,,,,,
1673442414.362804,16.000000,0.000000,4382.820313,4362.820313,4371.666504,4369.871582,4384.743652,4343.205078,4335.641113,4323.077148,4301.153809,4293.461426,4498.333496,4456.538574,4441.794922,4488.717773,0.000000,3.000000,80.000000,,,,0.000000,4.000000,4.000000,4.000000,4.000000,4.000000,4.000000,4.000000,4.000000,4.000000,4.000000,4.000000,4.000000,4.000000,4.000000,100.000000,,,,,,,,,,,,,,,,
1673442414.370617,17.000000,0.000000,4391.282227,4370.000000,4378.333496,4374.871582,4387.563965,4343.846191,4333.974121,4327.692383,4308.589844,4304.102539,4511.410156,4461.538574,4449.743652,4493.717773,0.000000,3.000000,80.000000,,,,0.000000,4.000000,4.000000,4.000000,4.000000,4.000000,4.000000,4.000000,4.000000,4.000000,4.000000,4.000000,4.000000,4.000000,4.000000,100.000000,,,,,,,,,,,,,,,,
1673442414.378429,18.000000,0.000000,4390.641113,4371.538574,4378.077148,4375.641113,4388.205078,4341.025879,4326.922852,4327.179688,4315.897461,4310.256348,4509.743652,4459.487305,4452.948730,4492.563965,0.000000,3.000000,80.000000,,,,0.000000,4.000000,4.000000,4.000000,4.000000,4.000000,4.000000,4.000000,4.000000,4.000000,4.000000,4.000000,4.000000,4.000000,4.000000,100.000000,,,,,,,,,,,,,,,,
1673442414.386242,19.000000,0.000000,4378.333496,4362.436035,4367.563965,4363.205078,4383.461426,4334.487305,4323.205078,4320.384766,4307.436035,4301.538574,4501.025879,4453.077148,4447.948730,4484.358887,0.000000,3.000000,80.000000,,,,0.000000,4.000000,4.000000,4.000000,4.000000,4.000000,4.000000,4.000000,4.000000,4.000000,4.000000,4.000000,4.000000,4.000000,4.000000,100.000000,,,,,,,,,,,,,,,,
1673442414.394054,20.000000,0.000000,4377.307617,4358.846191,4366.153809,4357.948730,4381.538574,4331.538574,4323.589844,4319.230957,4299.358887,4294.615234,4502.307617,4453.846191,4443.717773,4484.871582,0.000000,3.000000,80.000000,,,,0.000000,4.000000,4.000000,4.000000,4.000000,4.000000,4.000000,4.000000,4.000000,4.000000,4.000000,4.000000,4.000000,4.000000,4.000000,100.000000,,,,,,,,,,,,,,,,
1673442414.401867,21.000000,0.000000,4383.846191,4361.666504,4372.692383,4369.230957,4386.410156,4334.230957,4324.358887,4323.205078,4303.974121,4297.051270,4505.128418,4458.333496,4440.000000,4486.794922,0.000000,3.000000,80.000000,,,,0.000000,4.000000,4.000000,4.000000,4.000000,4.000000,4.000000,4.000000,4.000000,4.000000,4.000000,4.000000,4.000000,4.000000,4.000000,100.000000,,,,,,,,,,,,,,,,
1673442414.409679,22.000000,0.000000,4380.384766,4358.974121,4368.717773,4368.077148,4387.051270,4334.615234,4326.153809,4323.717773,4304.615234,4297.307617,4504.615234,4457.820313,4433.717773,4481.666504,0.000000,3.000000,80.000000,,,,0.000000,4.000000,4.000000,4.000000,4.000000,4.000000,4.000000,4.000000,4.000000,4.000000,4.000000,4.000000,4.000000,4.000000,4.000000,100.000000,,,,,,,,,,,,,,,,
1673442414.417492,23.000000,0.000000,4377.563965,4358.077148,4363.589844,4359.871582,4386.153809,4338.589844,4331.282227,4328.461426,4303.461426,4295.769043,4505.128418,4454.358887,4435.384766,4479.743652,0.000000,3.000000,80.000000,,,,0.000000,4.000000,4.000000,4.000000,4.000000,4.000000,4.000000,4.000000,4.000000,4.000000,4.000000,4.000000,4.000000,4.000000,4.000000,100.000000,,,,,,,,,,,,,,,,
1673442414.425304,24.000000,0.000000,4379.230957,4362.307617,4368.205078,4367.948730,4391.922852,4345.128418,4334.487305,4333.333496,4309.615234,4301.153809,4507.563965,4451.153809,4437.179688,4481.666504,0.000000,3.000000,80.000000,,,,0.000000,4.000000,4.000000,4.000000,4.000000,4.000000,4.000000,4.000000,4.000000,4.000000,4.000000,4.000000,4.000000,4.000000,4.000000,100.000000,,,,,,,,,,,,,,,,
1673442414.433117,25.000000,0.000000,4373.846191,4359.615234,4365.897461,4373.846191,4393.461426,4344.487305,4331.410156,4328.846191,4312.692383,4302.563965,4504.743652,4443.846191,4429.102539,4475.769043,0.000000,3.000000,80.000000,,,,0.000000,4.000000,4.000000,4.000000,4.000000,4.000000,4.000000,4.000000,4.000000,4.000000,4.000000,4.000000,4.000000,4.000000,4.000000,100.000000,,,,,,,,,,,,,,,,
1673442414.440929,26.000000,0.000000,4372.820313,4362.307617,4361.538574,4372.563965,4390.384766,4341.922852,4327.307617,4326.794922,4309.487305,4296.922852,4501.538574,4441.538574,4426.153809,4472.307617,0.000000,3.000000,80.000000,,,,0.000000,4.000000,4.000000,4.000000,4.000000,4.000000,4.000000,4.000000,4.000000,4.000000,4.000000,4.000000,4.000000,4.000000,4.000000,100.000000,,,,,,,,,,,,,,,,
1673442414.448742,27.000000,0.000000,4378.333496,4368.333496,4366.025879,4372.179688,4392.307617,4338.077148,4325.769043,4326.794922,4306.538574,4300.384766,4501.922852,4444.102539,4431.153809,4475.769043,0.000000,3.000000,80.000000,,,,0.000000,4.000000,4.000000,4.000000,4.000000,4.000000,4.000000,4.000000,4.000000,4.000000,4.000000,4.000000,4.000000,4.000000,4.000000,100.000000,,,,,,,,,,,,,,,,
1673442414.456554,28.000000,0.000000,4377.436035,4366.025879,4369.615234,4370.512695,4392.948730,4335.769043,4329.230957,4324.358887,4306.025879,4305.384766,4501.025879,4443.846191,4432.436035,4475.769043,0.000000,3.000000,80.000000,,,,0.000000,4.000000,4.000000,4.000000,4.000000,4.000000,4.000000,4.000000,4.000000,4.000000,4.000000,4.000000,4.000000,4.000000,4.000000,100.000000,,,,,,,,,,,,,,,,
1673442414.464367,29.000000,0.000000,4377.307617,4363.974121,4372.820313,4374.487305,4390.128418,4337.307617,4335.000000,4324.102539,4307.307617,4303.589844,4504.230957,4447.563965,4431.410156,4477.436035,0.000000,3.000000,80.000000,,,,0.000000,4.000000,4.000000,4.000000,4.000000,4.000000,4.000000,4.000000,4.000000,4.000000,4.000000,4.000000,4.000000,4.000000,4.000000,100.000000,,,,,,,,,,,,,,,,
1673442414.472179,30.000000,0.000000,4378.205078,4363.205078,4374.871582,4376.153809,4389.871582,4332.436035,4332.436035,4323.461426,4306.025879,4298.205078,4504.871582,4447.820313,4425.512695,4475.769043,0.000000,3.000000,80.000000,,,,0.000000,4.000000,4.000000,4.000000,4.000000,4.000000,4.000000,4.000000,4.000000,4.000000,4.000000,4.000000,4.000000,4.000000,4.000000,100.000000,,,,,,,,,,,,,,,,
1673442414.479992,31.000000,0.000000,4378.974121,4364.230957,4375.897461,4373.461426,4389.743652,4324.358887,4323.589844,4319.487305,4300.512695,4297.436035,4502.692383,4447.820313,4424.615234,4478.333496,0.000000,3.000000,80.000000,,,,0.000000,4.000000,4.000000,4.000000,4.000000,4.000000,4.000000,4.000000,4.000000,4.000000,4.000000,4.000000,4.000000,4.000000,4.000000,100.000000,,,,,,,,,,,,,,,,
1673442414.487804,32.000000,0.000000,4383.205078,4366.538574,4380.769043,4376.666504,4387.051270,4323.846191,4323.589844,4319.615234,4300.384766,4301.153809,4507.563965,4456.922852,4437.307617,4488.333496,0.000000,3.000000,80.000000,,,,0.000000,4.000000,4.000000,4.000000,4.000000,4.000000,4.000000,4.000000,4.000000,4.000000,4.000000,4.000000,4.000000,4.000000,4.000000,100.000000,,,,,,,,,,,,,,,,
1673442414.495617,33.000000,0.000000,4384.358887,4364.358887,4381.666504,4376.794922,4384.615234,4326.025879,4327.948730,4322.820313,4302.563965,4298.077148,4511.410156,4461.153809,4445.128418,4489.871582,0.000000,3.000000,80.000000,,,,0.000000,4.000000,4.000000,4.000000,4.000000,4.000000,4.000000,4.000000,4.000000,4.000000,4.000000,4.000000,4.000000,4.000000,4.000000,100.000000,,,,,,,,,,,,,,,,
1673442414.503429,34.000000,0.000000,4381.410156,4362.051270,4376.666504,4372.948730,4385.512695,4326.538574,4324.102539,4322.307617,4300.000000,4293.333496,4507.563965,4456.922852,4442.563965,4488.077148,0.000000,3.000000,80.000000,,,,0.000000,4.000000,4.000000,4.000000,4.000000,4.000000,4.000000,4.000000,4.000000,4.000000,4.000000,4.000000,4.000000,4.000000,4.000000,100.000000,,,,,,,,,,,,,,,,
1673442414.511242,35.000000,0.000000,4382.948730,4364.615234,4377.820313,4377.179688,4388.974121,4328.846191,4324.615234,4325.000000,4302.307617,4298.846191,4506.538574,4459.102539,4442.179688,4493.461426,0.000000,3.000000,80.000000,,,,0.000000,4.000000,4.000000,4.000000,4.000000,4.000000,4.000000,4.000000,4.000000,4.000000,4.000000,4.000000,4.000000,4.000000,4.000000,100.000000,,,,,,,,,,,,,,,,
1673442414.519054,36.000000,0.000000,4384.230957,4362.563965,4381.538574,4376.538574,4390.000000,4329.102539,4332.179688,4330.128418,4309.487305,4305.000000,4512.948730,4464.743652,4445.384766,4493.077148,0.000000,3.000000,80.000000,,,,0.000000,4.000000,4.000000,4.000000,4.000000,4.000000,4.000000,4.000000,4.000000,4.000000,4.000000,4.000000,4.000000,4.000000,4.000000,100.000000,,,,,,,,,,,,,,,,
1673442414.526867,37.000000,0.000000,4385.769043,4360.000000,4380.256348,4373.077148,4389.230957,4327.436035,4335.769043,4332.051270,4315.769043,4304.615234,4518.717773,4465.128418,4445.256348,4492.692383,0.000000,3.000000,80.000000,,,,0.000000,4.000000,4.000000,4.000000,4.000000,4.000000,4.000000,4.000000,4.000000,4.000000,4.000000,4.000000,4.000000,4.000000,4.000000,100.000000,,,,,,,,,,,,,,,,
1673442414.534679,38.000000,0.000000,4389.871582,4364.743652,4380.769043,4380.128418,4391.025879,4327.563965,4338.077148,4337.692383,4318.333496,4307.436035,4520.256348,4467.307617,4444.871582,4504.102539,0.000000,3.000000,80.000000,,,,0.000000,4.000000,4.000000,4.000000,4.000000,4.000000,4.000000,4.000000,4.000000,4.000000,4.000000,4.000000,4.000000,4.000000,4.000000,100.000000,,,,,,,,,,,,,,,,
1673442414.542492,39.000000,0.000000,4385.256348,4365.000000,4379.871582,4376.538574,4391.666504,4327.948730,4338.205078,4340.897461,4314.615234,4308.717773,4513.717773,4465.512695,4443.461426,4503.205078,0.000000,3.000000,80.000000,,,,0.000000,4.000000,4.000000,4.000000,4.000000,4.000000,4.000000,4.000000,4.000000,4.000000,4.000000,4.000000,4.000000,4.000000,4.000000,100.000000,,,,,,,,,,,,,,,,
1673442414.550304,40.000000,0.000000,4377.563965,4360.769043,4373.974121,4366.538574,4388.205078,4328.589844,4332.436035,4337.051270,4307.563965,4298.974121,4506.025879,4460.000000,4437.948730,4490.000000,0.000000,3.000000,80.000000,,,,0.000000,4.000000,4.000000,4.000000,4.000000,4.000000,4.000000,4.000000,4.000000,4.000000,4.000000,4.000000,4.000000,4.000000,4.000000,100.000000,,,,,,,,,,,,,,,,
1673442414.558117,41.000000,0.000000,4375.641113,4355.512695,4370.000000,4367.051270,4383.333496,4324.102539,4327.563965,4329.871582,4302.692383,4293.205078,4503.846191,4456.538574,4428.846191,4487.307617,0.000000,3.000000,80.000000,,,,0.000000,4.000000,4.000000,4.000000,4.000000,4.000000,4.000000,4.000000,4.000000,4.000000,4.000000,4.000000,4.000000,4.000000,4.000000,100.000000,,,,,,,,,,,,,,,,
1673442414.565929,42.000000,0.000000,4376.794922,4353.974121,4374.230957,4371.025879,4384.871582,4321.025879,4326.922852,4325.769043,4304.230957,4295.256348,4504.102539,4457.179688,4429.743652,4490.512695,0.000000,3.000000,80.000000,,,,0.000000,4.000000,4.000000,4.000000,4.000000,4.000000,4.000000,4.000000,4.000000,4.000000,4.000000,4.000000,4.000000,4.000000,4.000000,100.000000,,,,,,,,,,,,,,,,
1673442414.573742,43.000000,0.000000,4379.102539,4360.384766,4380.256348,4374.871582,4391.410156,4326.922852,4327.563965,4329.615234,4309.102539,4296.153809,4505.769043,4460.512695,4438.717773,4492.820313,0.000000,3.000000,80.000000,,,,0.000000,4.000000,4.000000,4.000000,4.000000,4.000000,4.000000,4.000000,4.000000,4.000000,4.000000,4.000000,4.000000,4.000000,4.000000,100.000000,,,,,,,,,,,,,,,,
1673442414.581554,44.000000,0.000000,4379.487305,4359.743652,4375.897461,4376.666504,4391.025879,4330.128418,4329.487305,4331.282227,4308.205078,4297.563965,4506.410156,4454.615234,4436.410156,4488.205078,0.000000,3.000000,80.000000,,,,0.000000,4.000000,4.000000,4.000000,4.000000,4.000000,4.000000,4.000000,4.000000,4.000000,4.000000,4.000000,4.000000,4.000000,4.000000,100.000000,,,,,,,,,,,,,,,,
1673442414.589367,45.000000,0.000000,4371.025879,4346.666504,4363.333496,4371.025879,4381.410156,4326.794922,4333.589844,4327.820313,4303.974121,4294.487305,4502.179688,4443.589844,4425.256348,4477.692383,0.000000,3.000000,80.000000,,,,0.000000,4.000000,4.000000,4.000000,4.000000,4.000000,4.000000,4.000000,4.000000,4.000000,4.000000,4.000000,4.000000,4.000000,4.000000,100.000000,,,,,,,,,,,,,,,,
1673442414.597179,46.000000,0.000000,4366.922852,4345.897461,4363.205078,4363.589844,4381.153809,4328.974121,4338.077148,4334.102539,4312.692383,4289.358887,4501.538574,4446.410156,4425.641113,4478.461426,0.000000,3.000000,80.000000,,,,0.000000,4.000000,4.000000,4.000000,4.000000,4.000000,4.000000,4.000000,4.000000,4.000000,4.000000,4.000000,4.000000,4.000000,4.000000,100.000000,,,,,,,,,,,,,,,,
1673442414.604992,47.000000,0.000000,4379.615234,4362.948730,4378.461426,4371.922852,4395.000000,4336.025879,4339.102539,4344.743652,4326.410156,4301.922852,4512.307617,4463.717773,4441.025879,4494.487305,0.000000,3.000000,80.000000,,,,0.000000,4.000000,4.000000,4.000000,4.000000,4.000000,4.000000,4.000000,4.000000,4.000000,4.000000,4.000000,4.000000,4.000000,4.000000,100.000000,,,,,,,,,,,,,,,,
1673442414.612804,48.000000,0.000000,4382.563965,4364.102539,4381.025879,4379.487305,4397.307617,4336.538574,4336.153809,4340.897461,4323.717773,4311.282227,4512.820313,4466.410156,4444.615234,4495.769043,0.000000,3.000000,80.000000,,,,0.000000,4.000000,4.000000,4.000000,4.000000,4.000000,4.000000,4.000000,4.000000,4.000000,4.000000,4.000000,4.000000,4.000000,4.000000,100.000000,,,,,,,,,,,,,,,,
1673442414.620617,49.000000,0.000000,4371.794922,4348.974121,4366.410156,4367.820313,4385.000000,4329.230957,4332.307617,4331.025879,4315.641113,4296.538574,4501.282227,4450.000000,4430.000000,4480.256348,0.000000,3.000000,80.000000,,,,0.000000,4.000000,4.000000,4.000000,4.000000,4.000000,4.000000,4.000000,4.000000,4.000000,4.000000,4.000000,4.000000,4.000000,4.000000,100.000000,,,,,,,,,,,,,,,,
1673442414.628429,50.000000,0.000000,4370.641113,4346.794922,4363.974121,4360.000000,4383.717773,4323.589844,4330.256348,4331.025879,4316.794922,4289.230957,4500.897461,4444.102539,4422.051270,4477.307617,0.000000,3.000000,80.000000,,,,0.000000,4.000000,4.000000,4.000000,4.000000,4.000000,4.000000,4.000000,4.000000,4.000000,4.000000,4.000000,4.000000,4.000000,4.000000,100.000000,,,,,,,,,,,,,,,,
1673442414.636242,51.000000,0.000000,4377.179688,4354.871582,4374.743652,4370.000000,4390.128418,4326.282227,4327.692383,4335.769043,4319.871582,4303.077148,4507.563965,4456.282227,4427.563965,4486.666504,0.000000,3.000000,80.000000,,,,0.000000,4.000000,4.000000,4.000000,4.000000,4.000000,4.000000,4.000000,4.000000,4.000000,4.000000,4.000000,4.000000,4.000000,4.000000,100.000000,,,,,,,,,,,,,,,,
1673442414.644054,52.000000,0.000000,4376.410156,4357.692383,4377.563965,4378.077148,4390.384766,4330.000000,4326.794922,4335.128418,4316.153809,4310.000000,4511.410156,4464.230957,4435.641113,4495.256348,0.000000,3.000000,80.000000,,,,0.000000,4.000000,4.000000,4.000000,4.000000,4.000000,4.000000,4.000000,4.000000,4.000000,4.000000,4.000000,4.000000,4.000000,4.000000,100.000000,,,,,,,,,,,,,,,,
1673442414.651867,53.000000,0.000000,4368.717773,4350.256348,4368.846191,4368.846191,4385.256348,4327.563965,4326.794922,4332.307617,4312.820313,4298.974121,4506.922852,4452.436035,4429.102539,4488.974121,0.000000,3.000000,80.000000,,,,0.000000,4.000000,4.000000,4.000000,4.000000,4.000000,4.000000,4.000000,4.000000,4.000000,4.000000,4.000000,4.000000,4.000000,4.000000,100.000000,,,,,,,,,,,,,,,,
1673442414.659679,54.000000,0.000000,4364.615234,4337.948730,4364.871582,4359.871582,4381.410156,4327.820313,4327.051270,4335.000000,4311.666504,4289.615234,4496.025879,4441.666504,4412.948730,4476.538574,0.000000,3.000000,80.000000,,,,0.000000,4.000000,4.000000,4.000000,4.000000,4.000000,4.000000,4.000000,4.000000,4.000000,4.000000,4.000000,4.000000,4.000000,4.000000,100.000000,,,,,,,,,,,,,,,,
1673442414.667492,55.000000,0.000000,4374.230957,4340.256348,4373.461426,4366.025879,4381.153809,4331.025879,4330.128418,4338.589844,4314.487305,4297.436035,4503.077148,4456.794922,4419.743652,4486.922852,0.000000,3.000000,80.000000,,,,0.000000,4.000000,4.000000,4.000000,4.000000,4.000000,4.000000,4.000000,4.000000,4.000000,4.000000,4.000000,4.000000,4.000000,4.000000,100.000000,,,,,,,,,,,,,,,,
1673442414.675304,56.000000,0.000000,4389.871582,4357.436035,4384.358887,4377.051270,4382.563965,4328.333496,4330.128418,4341.153809,4320.897461,4306.794922,4524.358887,4477.307617,4442.563965,4506.153809,0.000000,3.000000,80.000000,,,,0.000000,4.000000,4.000000,4.000000,4.000000,4.000000,4.000000,4.000000,4.000000,4.000000,4.000000,4.000000,4.000000,4.000000,4.000000,100.000000,,,,,,,,,,,,,,,,
1673442414.683117,57.000000,0.000000,4398.205078,4371.794922,4387.948730,4381.025879,4381.282227,4324.871582,4325.256348,4339.615234,4317.692383,4301.282227,4528.461426,4479.487305,4450.897461,4513.333496,0.000000,3.000000,80.000000,,,,0.000000,4.000000,4.000000,4.000000,4.000000,4.000000,4.000000,4.000000,4.000000,4.000000,4.000000,4.000000,4.000000,4.000000,4.000000,100.000000,,,,,,,,,,,,,,,,
1673442414.690929,58.000000,0.000000,4402.692383,4376.153809,4387.436035,4378.205078,4377.307617,4324.871582,4327.051270,4335.256348,4312.051270,4295.384766,4522.051270,4474.743652,4452.051270,4513.846191,0.000000,3.000000,80.000000,,,,0.000000,4.000000,4.000000,4.000000,4.000000,4.000000,4.000000,4.000000,4.000000,4.000000,4.000000,4.000000,4.000000,4.000000,4.000000,100.000000,,,,,,,,,,,,,,,,
1673442414.698742,59.000000,0.000000,4407.948730,4377.563965,4389.487305,4382.051270,4379.102539,4324.871582,4333.717773,4335.512695,4311.666504,4297.051270,4522.948730,4478.077148,4455.000000,4515.128418,0.000000,3.000000,80.000000,,,,0.000000,4.000000,4.000000,4.000000,4.000000,4.000000,4.000000,4.000000,4.000000,4.000000,4.000000,4.000000,4.000000,4.000000,4.000000,100.000000,,,,,,,,,,,,,,,,
1673442414.706554,60.000000,0.000000,4404.230957,4377.820313,4389.615234,4385.256348,4385.769043,4324.743652,4332.692383,4339.230957,4309.102539,4294.743652,4520.256348,4476.282227,4449.102539,4509.743652,0.000000,3.000000,80.000000,,,,0.000000,4.000000,4.000000,4.000000,4.000000,4.000000,4.000000,4.000000,4.000000,4.000000,4.000000,4.000000,4.000000,4.000000,4.000000,100.000000,,,,,,,,,,,,,,,,
1673442414.714367,61.000000,0.000000,4395.256348,4373.589844,4385.000000,4380.000000,4387.563965,4325.897461,4326.538574,4339.871582,4310.641113,4293.077148,4516.538574,4467.179688,4442.179688,4505.000000,0.000000,3.000000,80.000000,,,,0.000000,4.000000,4.000000,4.000000,4.000000,4.000000,4.000000,4.000000,4.000000,4.000000,4.000000,4.000000,4.000000,4.000000,4.000000,100.000000,,,,,,,,,,,,,,,,
1673442414.722179,62.000000,0.000000,4394.102539,4372.051270,4382.179688,4378.589844,4389.743652,4327.179688,4324.358887,4335.128418,4315.641113,4297.948730,4520.128418,4462.692383,4441.666504,4507.820313,0.000000,3.000000,80.000000,,,,0.000000,4.000000,4.000000,4.000000,4.000000,4.000000,4.000000,4.000000,4.000000,4.000000,4.000000,4.000000,4.000000,4.000000,4.000000,100.000000,,,,,,,,,,,,,,,,
1673442414.729992,63.000000,0.000000,4393.077148,4372.179688,4381.025879,4378.974121,4393.846191,4326.666504,4323.205078,4333.974121,4314.102539,4296.410156,4519.743652,4459.871582,4438.589844,4505.000000,0.000000,3.000000,80.000000,,,,0.000000,4.000000,4.000000,4.000000,4.000000,4.000000,4.000000,4.000000,4.000000,4.000000,4.000000,4.000000,4.000000,4.000000,4.000000,100.000000,,,,,,,,,,,,,,,,
1673442414.737804,64.000000,0.000000,4386.794922,4368.974121,4380.641113,4377.563965,4392.436035,4324.871582,4323.589844,4336.025879,4311.538574,4292.948730,4516.025879,4459.487305,4437.179688,4499.615234,0.000000,3.000000,80.000000,,,,0.000000,4.000000,4.000000,4.000000,4.000000,4.000000,4.000000,4.000000,4.000000,4.000000,4.000000,4.000000,4.000000,4.000000,4.000000,100.000000,,,,,,,,,,,,,,,,
1673442414.745617,65.000000,0.000000,4383.974121,4363.974121,4380.641113,4378.461426,4387.436035,4325.641113,4325.641113,4335.128418,4313.974121,4294.743652,4512.051270,4461.282227,4437.692383,4498.589844,0.000000,3.000000,80.000000,,,,0.000000,4.000000,4.000000,4.000000,4.000000,4.000000,4.000000,4.000000,4.000000,4.000000,4.000000,4.000000,4.000000,4.000000,4.000000,100.000000,,,,,,,,,,,,,,,,
1673442414.753429,66.000000,0.000000,4383.717773,4361.538574,4380.897461,4375.384766,4385.256348,4322.948730,4321.922852,4335.512695,4315.000000,4292.692383,4505.769043,4460.128418,4432.051270,4496.538574,0.000000,3.000000,80.000000,,,,0.000000,4.000000,4.000000,4.000000,4.000000,4.000000,4.000000,4.000000,4.000000,4.000000,4.000000,4.000000,4.000000,4.000000,4.000000,100.000000,1.000000,100.000000,4.000000,4.000000,4.000000,4.000000,4.000000,4.000000,4.000000,4.000000,4.000000,4.000000,4.000000,4.000000,4.000000,4.000000
1673442414.761242,67.000000,0.000000,4382.563965,4361.025879,4378.205078,4369.871582,4382.436035,4314.871582,4315.000000,4331.153809,4307.051270,4284.743652,4504.743652,4458.846191,4426.794922,4493.846191,0.000000,3.000000,80.000000,,,,0.000000,4.000000,4.000000,4.000000,4.000000,4.000000,4.000000,4.000000,4.000000,4.000000,4.000000,4.000000,4.000000,4.000000,4.000000,100.000000,,,,,,,,,,,,,,,,
1673442414.769054,68.000000,0.000000,4379.358887,4358.077148,4372.307617,4368.333496,4377.948730,4312.820313,4316.922852,4324.871582,4296.666504,4275.897461,4505.000000,4453.205078,4423.974121,4491.153809,0.000000,3.000000,80.000000,,,,0.000000,4.000000,4.000000,4.000000,4.000000,4.000000,4.000000,4.000000,4.000000,4.000000,4.000000,4.000000,4.000000,4.000000,4.000000,100.000000,,,,,,,,,,,,,,,,
1673442414.776867,69.000000,0.000000,4376.794922,4356.666504,4371.410156,4368.589844,4379.102539,4319.871582,4324.358887,4326.538574,4295.641113,4276.538574,4495.641113,4447.051270,4418.974121,4488.333496,0.000000,3.000000,80.000000,,,,0.000000,4.000000,4.000000,4.000000,4.000000,4.000000,4.000000,4.000000,4.000000,4.000000,4.000000,4.000000,4.000000,4.000000,4.000000,100.000000,,,,,,,,,,,,,,,,
1673442414.784679,70.000000,0.000000,4376.538574,4357.820313,4372.692383,4367.820313,4385.128418,4325.384766,4329.487305,4329.358887,4296.666504,4280.769043,4488.846191,4451.794922,4415.641113,4485.897461,0.000000,3.000000,80.000000,,,,0.000000,4.000000,4.000000,4.000000,4.000000,4.000000,4.000000,4.000000,4.000000,4.000000,4.000000,4.000000,4.000000,4.000000,4.000000,100.000000,,,,,,,,,,,,,,,,
1673442414.792492,71.000000,0.000000,4376.538574,4358.974121,4373.461426,4369.102539,4387.563965,4326.410156,4333.461426,4331.538574,4296.025879,4275.384766,4492.692383,4456.538574,4417.563965,4486.025879,0.000000,3.000000,80.000000,,,,0.000000,4.000000,4.000000,4.000000,4.000000,4.000000,4.000000,4.000000,4.000000,4.000000,4.000000,4.000000,4.000000,4.000000,4.000000,100.000000,,,,,,,,,,,,,,,,
1673442414.800304,72.000000,0.000000,4382.692383,4362.051270,4377.948730,4371.922852,4390.512695,4326.666504,4335.000000,4340.256348,4305.128418,4279.358887,4504.871582,4460.641113,4424.743652,4493.974121,0.000000,3.000000,80.000000,,,,0.000000,4.000000,4.000000,4.000000,4.000000,4.000000,4.000000,4.000000,4.000000,4.000000,4.000000,4.000000,4.000000,4.000000,4.000000,100.000000,,,,,,,,,,,,,,,,
1673442414.808117,73.000000,0.000000,4391.025879,4365.128418,4384.102539,4372.948730,4390.128418,4323.461426,4329.743652,4347.820313,4316.282227,4296.025879,4515.769043,4469.743652,4432.948730,4505.641113,0.000000,3.000000,80.000000,,,,0.000000,4.000000,4.000000,4.000000,4.000000,4.000000,4.000000,4.000000,4.000000,4.000000,4.000000,4.000000,4.000000,4.000000,4.000000,100.000000,,,,,,,,,,,,,,,,
1673442414.815929,74.000000,0.000000,4388.461426,4362.563965,4383.077148,4371.666504,4383.205078,4317.948730,4325.897461,4345.256348,4313.846191,4299.230957,4517.436035,4473.333496,4437.307617,4508.717773,0.000000,3.000000,80.000000,,,,0.000000,4.000000,4.000000,4.000000,4.000000,4.000000,4.000000,4.000000,4.000000,4.000000,4.000000,4.000000,4.000000,4.000000,4.000000,100.000000,,,,,,,,,,,,,,,,
1673442414.823742,75.000000,0.000000,4385.641113,4358.333496,4380.384766,4371.666504,4384.615234,4318.589844,4331.922852,4344.871582,4312.820313,4297.692383,4516.538574,4470.000000,4439.230957,4503.974121,0.000000,3.000000,80.000000,,,,0.000000,4.000000,4.000000,4.000000,4.000000,4.000000,4.000000,4.000000,4.000000,4.000000,4.000000,4.000000,4.000000,4.000000,4.000000,100.000000,,,,,,,,,,,,,,,,
1673442414.831554,76.000000,0.000000,4394.102539,4360.384766,4388.205078,4377.051270,4390.512695,4325.256348,4337.051270,4350.384766,4323.461426,4308.461426,4523.205078,4475.256348,4443.974121,4510.256348,0.000000,3.000000,80.000000,,,,0.000000,4.000000,4.000000,4.000000,4.000000,4.000000,4.000000,4.000000,4.000000,4.000000,4.000000,4.000000,4.000000,4.000000,4.000000,100.000000,,,,,,,,,,,,,,,,
1673442414.839367,77.000000,0.000000,4398.974121,4363.717773,4394.487305,4379.743652,4386.922852,4327.692383,4335.769043,4349.615234,4323.461426,4311.410156,4527.948730,4479.743652,4451.282227,4519.615234,0.000000,3.000000,80.000000,,,,0.000000,4.000000,4.000000,4.000000,4.000000,4.000000,4.000000,4.000000,4.000000,4.000000,4.000000,4.000000,4.000000,4.000000,4.000000,100.000000,,,,,,,,,,,,,,,,
1673442414.847179,78.000000,0.000000,4394.871582,4362.307617,4387.563965,4377.051270,4383.205078,4323.205078,4334.743652,4345.512695,4312.563965,4303.974121,4525.000000,4475.128418,4451.282227,4513.846191,0.000000,3.000000,80.000000,,,,0.000000,4.000000,4.000000,4.000000,4.000000,4.000000,4.000000,4.000000,4.000000,4.000000,4.000000,4.000000,4.000000,4.000000,4.000000,100.000000,,,,,,,,,,,,,,,,
1673442414.854992,79.000000,0.000000,4390.512695,4357.692383,4379.487305,4371.666504,4384.487305,4320.256348,4331.922852,4345.769043,4311.282227,4306.025879,4524.871582,4473.974121,4444.358887,4506.282227,0.000000,3.000000,80.000000,,,,0.000000,4.000000,4.000000,4.000000,4.000000,4.000000,4.000000,4.000000,4.000000,4.000000,4.000000,4.000000,4.000000,4.000000,4.000000,100.000000,,,,,,,,,,,,,,,,
1673442414.862804,80.000000,0.000000,4388.205078,4358.333496,4380.128418,4365.769043,4385.128418,4321.410156,4323.846191,4344.358887,4318.077148,4310.769043,4525.256348,4472.179688,4444.230957,4508.333496,0.000000,3.000000,80.000000,,,,0.000000,4.000000,4.000000,4.000000,4.000000,4.000000,4.000000,4.000000,4.000000,4.000000,4.000000,4.000000,4.000000,4.000000,4.000000,100.000000,,,,,,,,,,,,,,,,
1673442414.870617,81.000000,0.000000,4389.615234,4364.487305,4382.179688,4370.256348,4390.384766,4325.384766,4322.692383,4345.000000,4320.641113,4313.205078,4524.871582,4473.589844,4450.000000,4511.794922,0.000000,3.000000,80.000000,,,,0.000000,4.000000,4.000000,4.000000,4.000000,4.000000,4.000000,4.000000,4.000000,4.000000,4.000000,4.000000,4.000000,4.000000,4.000000,100.000000,,,,,,,,,,,,,,,,
1673442414.878429,82.000000,0.000000,4387.820313,4359.102539,4381.794922,4379.230957,4396.666504,4327.051270,4326.666504,4348.461426,4314.871582,4310.769043,4524.871582,4474.743652,4442.436035,4504.358887,0.000000,3.000000,80.000000,,,,0.000000,4.000000,4.000000,4.000000,4.000000,4.000000,4.000000,4.000000,4.000000,4.000000,4.000000,4.000000,4.000000,4.000000,4.000000,100.000000,,,,,,,,,,,,,,,,
1673442414.886242,83.000000,0.000000,4379.102539,4353.205078,4381.922852,4376.538574,4393.846191,4326.666504,4326.666504,4341.282227,4308.461426,4301.666504,4519.487305,4463.974121,4430.641113,4495.769043,0.000000,3.000000,80.000000,,,,0.000000,4.000000,4.000000,4.000000,4.000000,4.000000,4.000000,4.000000,4.000000,4.000000,4.000000,4.000000,4.000000,4.000000,4.000000,100.000000,,,,,,,,,,,,,,,,
1673442414.894054,84.000000,0.000000,4382.051270,4367.436035,4380.384766,4375.128418,4392.948730,4328.077148,4326.410156,4333.846191,4308.333496,4296.282227,4518.333496,4461.410156,4436.794922,4498.717773,0.000000,3.000000,80.000000,,,,0.000000,4.000000,4.000000,4.000000,4.000000,4.000000,4.000000,4.000000,4.000000,4.000000,4.000000,4.000000,4.000000,4.000000,4.000000,100.000000,,,,,,,,,,,,,,,,
1673442414.901867,85.000000,0.000000,4395.641113,4384.358887,4383.333496,4387.307617,4395.897461,4329.102539,4327.948730,4336.538574,4311.538574,4299.358887,4523.717773,4472.179688,4451.922852,4510.128418,0.000000,3.000000,80.000000,,,,0.000000,4.000000,4.000000,4.000000,4.000000,4.000000,4.000000,4.000000,4.000000,4.000000,4.000000,4.000000,4.000000,4.000000,4.000000,100.000000,,,,,,,,,,,,,,,,
1673442414.909679,86.000000,0.000000,4397.179688,4383.461426,4391.538574,4391.666504,4394.102539,4327.436035,4326.025879,4338.589844,4312.307617,4303.333496,4525.384766,4475.512695,4457.948730,4516.666504,0.000000,3.000000,80.000000,,,,0.000000,4.000000,4.000000,4.000000,4.000000,4.000000,4.000000,4.000000,4.000000,4.000000,4.000000,4.000000,4.000000,4.000000,4.000000,100.000000,,,,,,,,,,,,,,,,
1673442414.917492,87.000000,0.000000,4395.256348,4378.846191,4393.974121,4385.000000,4394.358887,4325.769043,4325.256348,4337.563965,4310.897461,4302.948730,4522.692383,4469.743652,4456.794922,4512.051270,0.000000,3.000000,80.000000,,,,0.000000,4.000000,4.000000,4.000000,4.000000,4.000000,4.000000,4.000000,4.000000,4.000000,4.000000,4.000000,4.000000,4.000000,4.000000,100.000000,,,,,,,,,,,,,,,,
1673442414.925304,88.000000,0.000000,4401.025879,4381.025879,4394.871582,4386.025879,4397.051270,4326.153809,4329.230957,4334.615234,4309.871582,4306.153809,4523.333496,4471.538574,4454.871582,4513.461426,0.000000,3.000000,80.000000,,,,0.000000,4.000000,4.000000,4.000000,4.000000,4.000000,4.000000,4.000000,4.000000,4.000000,4.000000,4.000000,4.000000,4.000000,4.000000,100.000000,,,,,,,,,,,,,,,,
1673442414.933117,89.000000,0.000000,4401.410156,4378.205078,4395.512695,4387.820313,4393.974121,4325.128418,4328.589844,4332.436035,4305.512695,4305.512695,4524.871582,4473.077148,4450.256348,4518.589844,0.000000,3.000000,80.000000,,,,0.000000,4.000000,4.000000,4.000000,4.000000,4.000000,4.000000,4.000000,4.000000,4.000000,4.000000,4.000000,4.000000,4.000000,4.000000,100.000000,,,,,,,,,,,,,,,,
1673442414.940929,90.000000,0.000000,4400.128418,4377.436035,4394.102539,4385.000000,4393.974121,4323.974121,4323.333496,4335.384766,4303.205078,4301.410156,4523.717773,4472.820313,4449.230957,4517.948730,0.000000,3.000000,80.000000,,,,0.000000,4.000000,4.000000,4.000000,4.000000,4.000000,4.000000,4.000000,4.000000,4.000000,4.000000,4.000000,4.000000,4.000000,4.000000,100.000000,,,,,,,,,,,,,,,,
1673442414.948742,91.000000,0.000000,4401.153809,4380.641113,4395.128418,4386.666504,4398.077148,4324.230957,4324.615234,4339.871582,4307.051270,4305.256348,4522.307617,4474.743652,4450.512695,4515.256348,0.000000,3.000000,80.000000,,,,0.000000,4.000000,4.000000,4.000000,4.000000,4.000000,4.000000,4.000000,4.000000,4.000000,4.000000,4.000000,4.000000,4.000000,4.000000,100.000000,,,,,,,,,,,,,,,,
1673442414.956554,92.000000,0.000000,4396.025879,4377.820313,4391.666504,4390.641113,4395.384766,4324.743652,4329.230957,4340.769043,4311.025879,4306.025879,4520.769043,4467.563965,4448.205078,4513.846191,0.000000,3.000000,80.000000,,,,0.000000,4.000000,4.000000,4.000000,4.000000,4.000000,4.000000,4.000000,4.000000,4.000000,4.000000,4.000000,4.000000,4.000000,4.000000,100.000000,,,,,,,,,,,,,,,,
1673442414.964367,93.000000,0.000000,4389.487305,4373.333496,4383.846191,4385.384766,4390.769043,4325.384766,4328.717773,4337.692383,4307.563965,4298.717773,4518.205078,4458.333496,4445.384766,4507.692383,0.000000,3.000000,80.000000,,,,0.000000,4.000000,4.000000,4.000000,4.000000,4.000000,4.000000,4.000000,4.000000,4.000000,4.000000,4.000000,4.000000,4.000000,4.000000,100.000000,,,,,,,,,,,,,,,,
1673442414.972179,94.000000,0.000000,4389.487305,4373.461426,4383.333496,4378.717773,4392.179688,4326.922852,4325.128418,4336.538574,4303.077148,4296.025879,4519.871582,4459.871582,4444.102539,4502.820313,0.000000,3.000000,80.000000,,,,0.000000,4.000000,4.000000,4.000000,4.000000,4.000000,4.000000,4.000000,4.000000,4.000000,4.000000,4.000000,4.000000,4.000000,4.000000,100.000000,,,,,,,,,,,,,,,,
1673442414.979992,95.000000,0.000000,4389.230957,4371.410156,4384.358887,4379.743652,4392.820313,4328.461426,4325.128418,4341.538574,4306.282227,4296.025879,4524.102539,4464.743652,4443.589844,4510.512695,0.000000,3.000000,80.000000,,,,0.000000,4.000000,4.000000,4.000000,4.000000,4.000000,4.000000,4.000000,4.000000,4.000000,4.000000,4.000000,4.000000,4.000000,4.000000,100.000000,,,,,,,,,,,,,,,,
1673442414.987804,96.000000,0.000000,4381.282227,4359.487305,4374.487305,4375.769043,4388.974121,4328.077148,4325.641113,4342.948730,4307.563965,4285.769043,4516.025879,4458.589844,4439.743652,4507.563965,0.000000,3.000000,80.000000,,,,0.000000,4.000000,4.000000,4.000000,4.000000,4.000000,4.000000,4.000000,4.000000,4.000000,4.000000,4.000000,4.000000,4.000000,4.000000,100.000000,,,,,,,,,,,,,,,,
1673442414.995617,97.000000,0.000000,4374.871582,4350.641113,4365.641113,4363.589844,4387.948730,4330.384766,4328.974121,4337.692383,4302.436035,4278.717773,4507.051270,4451.025879,4432.563965,4491.153809,0.000000,3.000000,80.000000,,,,0.000000,4.000000,4.000000,4.000000,4.000000,4.000000,4.000000,4.000000,4.000000,4.000000,4.000000,4.000000,4.000000,4.000000,4.000000,100.000000,,,,,,,,,,,,,,,,
1673442415.003429,98.000000,0.000000,4378.077148,4350.000000,4370.641113,4363.846191,4390.256348,4333.717773,4339.102539,4337.307617,4296.282227,4285.769043,4515.769043,4454.615234,4432.563965,4491.410156,0.000000,3.000000,80.000000,,,,0.000000,4.000000,4.000000,4.000000,4.000000,4.000000,4.000000,4.000000,4.000000,4.000000,4.000000,4.000000,4.000000,4.000000,4.000000,100.000000,,,,,,,,,,,,,,,,
1673442415.011242,99.000000,0.000000,4381.153809,4349.487305,4379.487305,4375.256348,4391.025879,4335.769043,4345.512695,4345.512695,4299.871582,4287.563965,4523.333496,4460.641113,4437.436035,4501.410156,0.000000,3.000000,80.000000,,,,0.000000,4.000000,4.000000,4.000000,4.000000,4.000000,4.000000,4.000000,4.000000,4.000000,4.000000,4.000000,4.000000,4.000000,4.000000,100.000000,,,,,,,,,,,,,,,,
1673442415.019054,100.000000,0.000000,4380.512695,4350.769043,4380.256348,4379.230957,4394.102539,4337.948730,4340.512695,4351.794922,4310.256348,4283.974121,4516.538574,4463.717773,4436.153809,4503.077148,0.000000,3.000000,80.000000,,,,0.000000,4.000000,4.000000,4.000000,4.000000,4.000000,4.000000,4.000000,4.000000,4.000000,4.000000,4.000000,4.000000,4.000000,4.000000,100.000000,,,,,,,,,,,,,,,,
1673442415.026867,101.000000,0.000000,4380.641113,4353.461426,4374.358887,4375.512695,4394.102539,4334.230957,4332.692383,4348.846191,4307.051270,4285.512695,4508.205078,4461.282227,4428.205078,4498.589844,0.000000,3.000000,80.000000,,,,0.000000,4.000000,4.000000,4.000000,4.000000,4.000000,4.000000,4.000000,4.000000,4.000000,4.000000,4.000000,4.000000,4.000000,4.000000,100.000000,,,,,,,,,,,,,,,,
1673442415.034679,102.000000,0.000000,4382.179688,4356.922852,4373.205078,4373.974121,4388.333496,4326.410156,4329.615234,4341.025879,4298.717773,4286.025879,4507.692383,4456.282227,4426.025879,4497.179688,0.000000,3.000000,80.000000,,,,0.000000,4.000000,4.000000,4.000000,4.000000,4.000000,4.000000,4.000000,4.000000,4.000000,4.000000,4.000000,4.000000,4.000000,4.000000,100.000000,,,,,,,,,,,,,,,,
1673442415.042492,103.000000,0.000000,4390.256348,4369.358887,4383.974121,4380.641113,4389.615234,4326.025879,4327.692383,4339.102539,4307.948730,4289.230957,4521.025879,4460.897461,4441.025879,4505.897461,0.000000,3.000000,80.000000,,,,0.000000,4.000000,4.000000,4.000000,4.000000,4.000000,4.000000,4.000000,4.000000,4.000000,4.000000,4.000000,4.000000,4.000000,4.000000,100.000000,,,,,,,,,,,,,,,,
1673442415.050304,104.000000,0.000000,4399.358887,4377.692383,4392.948730,4386.282227,4397.820313,4330.384766,4327.563965,4347.563965,4325.000000,4302.179688,4538.205078,4476.025879,4457.051270,4518.461426,0.000000,3.000000,80.000000,,,,0.000000,4.000000,4.000000,4.000000,4.000000,4.000000,4.000000,4.000000,4.000000,4.000000,4.000000,4.000000,4.000000,4.000000,4.000000,100.000000,,,,,,,,,,,,,,,,
1673442415.058117,105.000000,0.000000,4393.974121,4367.692383,4385.512695,4381.282227,4397.307617,4327.436035,4328.333496,4351.282227,4326.666504,4309.230957,4535.256348,4479.871582,4454.743652,4516.794922,0.000000,3.000000,80.000000,,,,0.000000,4.000000,4.000000,4.000000,4.000000,4.000000,4.000000,4.000000,4.000000,4.000000,4.000000,4.000000,4.000000,4.000000,4.000000,100.000000,,,,,,,,,,,,,,,,
1673442415.065929,106.000000,0.000000,4378.589844,4358.589844,4372.820313,4371.282227,4392.051270,4324.358887,4327.179688,4347.692383,4318.461426,4297.563965,4523.205078,4463.461426,4446.666504,4502.692383,0.000000,3.000000,80.000000,,,,0.000000,4.000000,4.000000,4.000000,4.000000,4.000000,4.000000,4.000000,4.000000,4.000000,4.000000,4.000000,4.000000,4.000000,4.000000,100.000000,,,,,,,,,,,,,,,,
1673442415.073742,107.000000,0.000000,4375.128418,4357.563965,4373.589844,4367.948730,4390.897461,4326.666504,4325.641113,4349.743652,4316.922852,4290.512695,4521.794922,4459.358887,4453.205078,4500.384766,0.000000,3.000000,80.000000,,,,0.000000,4.000000,4.000000,4.000000,4.000000,4.000000,4.000000,4.000000,4.000000,4.000000,4.000000,4.000000,4.000000,4.000000,4.000000,100.000000,,,,,,,,,,,,,,,,
1673442415.081554,108.000000,0.000000,4385.384766,4355.256348,4387.692383,4375.897461,4393.589844,4325.000000,4327.051270,4351.666504,4317.692383,4297.692383,4526.922852,4472.436035,4461.666504,4507.820313,0.000000,3.000000,80.000000,,,,0.000000,4.000000,4.000000,4.000000,4.000000,4.000000,4.000000,4.000000,4.000000,4.000000,4.000000,4.000000,4.000000,4.000000,4.000000,100.000000,,,,,,,,,,,,,,,,
1673442415.089367,109.000000,0.000000,4391.282227,4356.538574,4394.487305,4380.256348,4393.333496,4321.025879,4332.307617,4348.589844,4315.256348,4297.948730,4534.871582,4481.153809,4460.128418,4507.179688,0.000000,3.000000,80.000000,,,,0.000000,4.000000,4.000000,4.000000,4.000000,4.000000,4.000000,4.000000,4.000000,4.000000,4.000000,4.000000,4.000000,4.000000,4.000000,100.000000,,,,,,,,,,,,,,,,
1673442415.097179,110.000000,0.000000,4389.743652,4362.820313,4392.307617,4376.794922,4388.589844,4323.077148,4336.794922,4350.384766,4317.436035,4292.307617,4539.358887,4485.512695,4463.333496,4507.307617,0.000000,3.000000,80.000000,,,,0.000000,4.000000,4.000000,4.000000,4.000000,4.000000,4.000000,4.000000,4.000000,4.000000,4.000000,4.000000,4.000000,4.000000,4.000000,100.000000,,,,,,,,,,,,,,,,
1673442415.104992,111.000000,0.000000,4390.769043,4366.025879,4390.769043,4377.051270,4387.179688,4327.820313,4336.153809,4355.256348,4323.077148,4294.102539,4533.461426,4488.205078,4465.256348,4509.487305,0.000000,3.000000,80.000000,,,,0.000000,4.000000,4.000000,4.000000,4.000000,4.000000,4.000000,4.000000,4.000000,4.000000,4.000000,4.000000,4.000000,4.000000,4.000000,100.000000,,,,,,,,,,,,,,,,
1673442415.112804,112.000000,0.000000,4387.692383,4360.384766,4386.025879,4376.922852,4388.077148,4326.410156,4331.153809,4350.897461,4317.948730,4291.922852,4519.615234,4479.487305,4451.410156,4500.128418,0.000000,3.000000,80.000000,,,,0.000000,4.000000,4.000000,4.000000,4.000000,4.000000,4.000000,4.000000,4.000000,4.000000,4.000000,4.000000,4.000000,4.000000,4.000000,100.000000,,,,,,,,,,,,,,,,
1673442415.120617,113.000000,0.000000,4377.948730,4357.692383,4381.282227,4375.897461,4389.743652,4327.307617,4323.717773,4338.974121,4309.743652,4282.307617,4510.128418,4464.743652,4441.153809,4488.974121,0.000000,3.000000,80.000000,,,,0.000000,4.000000,4.000000,4.000000,4.000000,4.000000,4.000000,4.000000,4.000000,4.000000,4.000000,4.000000,4.000000,4.000000,4.000000,100.000000,,,,,,,,,,,,,,,,
1673442415.128429,114.000000,0.000000,4376.794922,4364.487305,4379.871582,4379.871582,4395.384766,4333.974121,4324.230957,4332.563965,4312.948730,4280.897461,4504.743652,4458.461426,4444.358887,4489.230957,0.000000,3.000000,80.000000,,,,0.000000,4.000000,4.000000,4.000000,4.000000,4.000000,4.000000,4.000000,4.000000,4.000000,4.000000,4.000000,4.000000,4.000000,4.000000,100.000000,,,,,,,,,,,,,,,,
1673442415.136242,115.000000,0.000000,4377.692383,4356.153809,4375.384766,4375.000000,4396.922852,4333.205078,4333.333496,4335.897461,4315.769043,4283.589844,4502.051270,4456.282227,4437.692383,4483.461426,0.000000,3.000000,80.000000,,,,0.000000,4.000000,4.000000,4.000000,4.000000,4.000000,4.000000,4.000000,4.000000,4.000000,4.000000,4.000000,4.000000,4.000000,4.000000,100.000000,,,,,,,,,,,,,,,,
1673442415.144054,116.000000,0.000000,4374.230957,4340.128418,4373.077148,4364.487305,4392.436035,4327.436035,4333.846191,4338.205078,4311.410156,4286.794922,4509.230957,4459.743652,4434.487305,4476.922852,0.000000,3.000000,80.000000,,,,0.000000,4.000000,4.000000,4.000000,4.000000,4.000000,4.000000,4.000000,4.000000,4.000000,4.000000,4.000000,4.000000,4.000000,4.000000,100.000000,,,,,,,,,,,,,,,,
1673442415.151867,117.000000,0.000000,4388.846191,4356.025879,4385.769043,4371.794922,4391.410156,4326.282227,4328.333496,4337.563965,4309.487305,4290.897461,4520.256348,4470.769043,4457.563965,4496.282227,0.000000,3.000000,80.000000,,,,0.000000,4.000000,4.000000,4.000000,4.000000,4.000000,4.000000,4.000000,4.000000,4.000000,4.000000,4.000000,4.000000,4.000000,4.000000,100.000000,,,,,,,,,,,,,,,,
1673442415.159679,118.000000,0.000000,4417.948730,4390.000000,4402.692383,4387.820313,4394.743652,4327.948730,4332.948730,4338.077148,4308.974121,4288.717773,4528.077148,4481.922852,4478.589844,4522.948730,0.000000,3.000000,80.000000,,,,0.000000,4.000000,4.000000,4.000000,4.000000,4.000000,4.000000,4.000000,4.000000,4.000000,4.000000,4.000000,4.000000,4.000000,4.000000,100.000000,,,,,,,,,,,,,,,,
1673442415.167492,119.000000,0.000000,4429.615234,4398.205078,4410.256348,4392.436035,4392.307617,4326.794922,4340.000000,4340.641113,4304.743652,4281.794922,4536.025879,4490.512695,4484.487305,4532.436035,0.000000,3.000000,80.000000,,,,0.000000,4.000000,4.000000,4.000000,4.000000,4.000000,4.000000,4.000000,4.000000,4.000000,4.000000,4.000000,4.000000,4.000000,4.000000,100.000000,,,,,,,,,,,,,,,,
1673442415.175304,120.000000,0.000000,4427.692383,4393.205078,4412.179688,4390.897461,4386.666504,4325.641113,4337.179688,4342.307617,4304.358887,4279.102539,4539.487305,4493.333496,4490.897461,4539.102539,0.000000,3.000000,80.000000,,,,0.000000,4.000000,4.000000,4.000000,4.000000,4.000000,4.000000,4.000000,4.000000,4.000000,4.000000,4.000000,4.000000,4.000000,4.000000,100.000000,,,,,,,,,,,,,,,,
1673442415.183117,121.000000,0.000000,4430.897461,4396.666504,4409.743652,4389.487305,4387.051270,4325.897461,4330.641113,4338.846191,4304.871582,4285.897461,4538.333496,4493.205078,4489.615234,4542.307617,0.000000,3.000000,80.000000,,,,0.000000,4.000000,4.000000,4.000000,4.000000,4.000000,4.000000,4.000000,4.000000,4.000000,4.000000,4.000000,4.000000,4.000000,4.000000,100.000000,,,,,,,,,,,,,,,,
1673442415.190929,122.000000,0.000000,4427.307617,4398.846191,4403.077148,4392.179688,4394.230957,4326.410156,4325.256348,4333.205078,4305.000000,4290.128418,4534.102539,4487.820313,4476.666504,4530.897461,0.000000,3.000000,80.000000,,,,0.000000,4.000000,4.000000,4.000000,4.000000,4.000000,4.000000,4.000000,4.000000,4.000000,4.000000,4.000000,4.000000,4.000000,4.000000,100.000000,,,,,,,,,,,,,,,,
1673442415.198742,123.000000,0.000000,4421.538574,4400.256348,4402.179688,4399.743652,4402.436035,4327.692383,4322.307617,4331.666504,4310.641113,4290.641113,4526.025879,4482.307617,4474.230957,4522.948730,0.000000,3.000000,80.000000,,,,0.000000,4.000000,4.000000,4.000000,4.000000,4.000000,4.000000,4.000000,4.000000,4.000000,4.000000,4.000000,4.000000,4.000000,4.000000,100.000000,,,,,,,,,,,,,,,,
1673442415.206554,124.000000,0.000000,4425.000000,4399.871582,4407.307617,4398.461426,4400.512695,4327.179688,4323.077148,4332.563965,4316.538574,4294.358887,4523.461426,4485.000000,4477.436035,4524.743652,0.000000,3.000000,80.000000,,,,0.000000,4.000000,4.000000,4.000000,4.000000,4.000000,4.000000,4.000000,4.000000,4.000000,4.000000,4.000000,4.000000,4.000000,4.000000,100.000000,,,,,,,,,,,,,,,,
1673442415.214367,125.000000,0.000000,4425.000000,4397.948730,4407.179688,4393.974121,4394.358887,4325.256348,4324.102539,4334.615234,4316.025879,4296.282227,4534.615234,4491.153809,4471.282227,4523.974121,0.000000,3.000000,80.000000,,,,0.000000,4.000000,4.000000,4.000000,4.000000,4.000000,4.000000,4.000000,4.000000,4.000000,4.000000,4.000000,4.000000,4.000000,4.000000,100.000000,,,,,,,,,,,,,,,,
1673442415.222179,126.000000,0.000000,4421.794922,4399.743652,4405.512695,4398.974121,4397.307617,4327.051270,4330.512695,4340.256348,4315.641113,4296.922852,4543.205078,4490.641113,4471.538574,4523.846191,0.000000,3.000000,80.000000,,,,0.000000,4.000000,4.000000,4.000000,4.000000,4.000000,4.000000,4.000000,4.000000,4.000000,4.000000,4.000000,4.000000,4.000000,4.000000,100.000000,,,,,,,,,,,,,,,,
1673442415.229992,127.000000,0.000000,4421.410156,4398.461426,4406.538574,4399.871582,4400.641113,4332.692383,4342.563965,4351.282227,4323.717773,4298.717773,4540.000000,4491.410156,4475.000000,4525.000000,0.000000,3.000000,80.000000,,,,0.000000,4.000000,4.000000,4.000000,4.000000,4.000000,4.000000,4.000000,4.000000,4.000000,4.000000,4.000000,4.000000,4.000000,4.000000,100.000000,,,,,,,,,,,,,,,,
1673442415.237804,0.000000,0.000000,4415.769043,4391.922852,4402.051270,4389.743652,4392.051270,4334.615234,4348.461426,4354.615234,4329.615234,4300.897461,4537.179688,4494.230957,4469.230957,4518.461426,0.000000,3.000000,80.000000,,,,0.000000,4.000000,4.000000,4.000000,4.000000,4.000000,4.000000,4.000000,4.000000,4.000000,4.000000,4.000000,4.000000,4.000000,4.000000,100.000000,,,,,,,,,,,,,,,,
1673442415.245617,1.000000,0.000000,4406.922852,4385.897461,4392.948730,4383.589844,4381.282227,4333.205078,4342.179688,4346.282227,4325.128418,4299.487305,4538.974121,4485.641113,4466.025879,4510.384766,0.000000,3.000000,80.000000,,,,0.000000,4.000000,4.000000,4.000000,4.000000,4.000000,4.000000,4.000000,4.000000,4.000000,4.000000,4.000000,4.000000,4.000000,4.000000,100.000000,,,,,,,,,,,,,,,,
1673442415.253429,2.000000,0.000000,4404.102539,4382.051270,4393.205078,4385.128418,4387.563965,4334.102539,4335.128418,4341.410156,4320.128418,4299.871582,4535.384766,4475.000000,4465.384766,4508.205078,0.000000,3.000000,80.000000,,,,0.000000,4.000000,4.000000,4.000000,4.000000,4.000000,4.000000,4.000000,4.000000,4.000000,4.000000,4.000000,4.000000,4.000000,4.000000,100.000000,1.000000,100.000000,4.000000,4.000000,4.000000,4.000000,4.000000,4.000000,4.000000,4.000000,4.000000,4.000000,4.000000,4.000000,4.000000,4.000000
1673442415.261242,3.000000,0.000000,4403.846191,4380.256348,4399.230957,4383.717773,4400.641113,4337.563965,4335.769043,4344.487305,4317.692383,4302.307617,4527.307617,4476.410156,4460.897461,4508.077148,0.000000,3.000000,80.000000,,,,0.000000,4.000000,4.000000,4.000000,4.000000,4.000000,4.000000,4.000000,4.000000,4.000000,4.000000,4.000000,4.000000,4.000000,4.000000,100.000000,,,,,,,,,,,,,,,,
1673442415.269054,4.000000,0.000000,4398.717773,4380.000000,4395.897461,4380.128418,4398.846191,4340.384766,4335.769043,4344.230957,4318.205078,4298.205078,4521.794922,4476.153809,4456.410156,4507.307617,0.000000,3.000000,80.000000,,,,0.000000,4.000000,4.000000,4.000000,4.000000,4.000000,4.000000,4.000000,4.000000,4.000000,4.000000,4.000000,4.000000,4.000000,4.000000,100.000000,,,,,,,,,,,,,,,,
1673442415.276867,5.000000,0.000000,4394.743652,4379.102539,4386.153809,4378.205078,4393.461426,4340.512695,4336.538574,4336.922852,4312.563965,4287.948730,4514.871582,4464.871582,4447.692383,4498.589844,0.000000,3.000000,80.000000,,,,0.000000,4.000000,4.000000,4.000000,4.000000,4.000000,4.000000,4.000000,4.000000,4.000000,4.000000,4.000000,4.000000,4.000000,4.000000,100.000000,,,,,,,,,,,,,,,,
1673442415.284679,6.000000,0.000000,4393.461426,4378.205078,4380.256348,4377.948730,4401.922852,4341.538574,4337.692383,4328.717773,4301.794922,4278.846191,4503.974121,4452.436035,4434.743652,4488.717773,0.000000,3.000000,80.000000,,,,0.000000,4.000000,4.000000,4.000000,4.000000,4.000000,4.000000,4.000000,4.000000,4.000000,4.000000,4.000000,4.000000,4.000000,4.000000,100.000000,,,,,,,,,,,,,,,,
1673442415.292492,7.000000,0.000000,4393.974121,4379.615234,4385.128418,4382.051270,4409.358887,4343.846191,4338.333496,4327.307617,4301.922852,4280.128418,4502.307617,4453.974121,4435.256348,4495.384766,0.000000,3.000000,80.000000,,,,0.000000,4.000000,4.000000,4.000000,4.000000,4.000000,4.000000,4.000000,4.000000,4.000000,4.000000,4.000000,4.000000,4.000000,4.000000,100.000000,,,,,,,,,,,,,,,,
1673442415.300304,8.000000,0.000000,4405.384766,4385.769043,4400.256348,4392.179688,4403.205078,4339.358887,4335.000000,4328.846191,4310.128418,4284.487305,4512.051270,4467.051270,4446.666504,4508.846191,0.000000,3.000000,80.000000,,,,0.000000,4.000000,4.000000,4.000000,4.000000,4.000000,4.000000,4.000000,4.000000,4.000000,4.000000,4.000000,4.000000,4.000000,4.000000,100.000000,,,,,,,,,,,,,,,,
1673442415.308117,9.000000,0.000000,4413.077148,4387.820313,4409.871582,4397.436035,4395.641113,4328.205078,4328.589844,4330.128418,4311.538574,4286.538574,4519.230957,4475.897461,4446.538574,4509.615234,0.000000,3.000000,80.000000,,,,0.000000,4.000000,4.000000,4.000000,4.000000,4.000000,4.000000,4.000000,4.000000,4.000000,4.000000,4.000000,4.000000,4.000000,4.000000,100.000000,,,,,,,,,,,,,,,,
1673442415.315929,10.000000,0.000000,4405.512695,4384.102539,4402.948730,4388.589844,4395.384766,4325.000000,4329.358887,4333.077148,4307.563965,4291.153809,4520.641113,4473.205078,4442.051270,4505.384766,0.000000,3.000000,80.000000,,,,0.000000,4.000000,4.000000,4.000000,4.000000,4.000000,4.000000,4.000000,4.000000,4.000000,4.000000,4.000000,4.000000,4.000000,4.000000,100.000000,,,,,,,,,,,,,,,,
1673442415.323742,11.000000,0.000000,4401.922852,4383.077148,4395.000000,4383.846191,4396.410156,4328.974121,4334.743652,4335.641113,4311.410156,4296.666504,4524.102539,4475.000000,4450.128418,4511.794922,0.000000,3.000000,80.000000,,,,0.000000,4.000000,4.000000,4.000000,4.000000,4.000000,4.000000,4.000000,4.000000,4.000000,4.000000,4.000000,4.000000,4.000000,4.000000,100.000000,,,,,,,,,,,,,,,,
1673442415.331554,12.000000,0.000000,4408.589844,4384.230957,4404.358887,4391.282227,4395.512695,4326.410156,4332.307617,4341.025879,4321.025879,4300.641113,4532.948730,4488.717773,4459.743652,4519.102539,0.000000,3.000000,80.000000,,,,0.000000,4.000000,4.000000,4.000000,4.000000,4.000000,4.000000,4.000000,4.000000,4.000000,4.000000,4.000000,4.000000,4.000000,4.000000,100.000000,,,,,,,,,,,,,,,,
1673442415.339367,13.000000,0.000000,4410.256348,4385.512695,4416.538574,4393.333496,4398.333496,4326.794922,4329.358887,4346.666504,4323.717773,4302.563965,4536.794922,4495.128418,4457.307617,4517.307617,0.000000,3.000000,80.000000,,,,0.000000,4.000000,4.000000,4.000000,4.000000,4.000000,4.000000,4.000000,4.000000,4.000000,4.000000,4.000000,4.000000,4.000000,4.000000,100.000000,,,,,,,,,,,,,,,,
1673442415.347179,14.000000,0.000000,4400.769043,4384.102539,4410.128418,4386.666504,4403.205078,4332.948730,4333.461426,4345.641113,4317.051270,4299.358887,4526.922852,4482.436035,4446.153809,4508.974121,0.000000,3.000000,80.000000,,,,0.000000,4.000000,4.000000,4.000000,4.000000,4.000000,4.000000,4.000000,4.000000,4.000000,4.000000,4.000000,4.000000,4.000000,4.000000,100.000000,,,,,,,,,,,,,,,,
1673442415.354992,15.000000,0.000000,4393.077148,4378.077148,4397.692383,4384.230957,4400.641113,4331.282227,4332.563965,4339.230957,4308.205078,4289.358887,4515.256348,4468.974121,4441.410156,4498.589844,0.000000,3.000000,80.000000,,,,0.000000,4.000000,4.000000,4.000000,4.000000,4.000000,4.000000,4.000000,4.000000,4.000000,4.000000,4.000000,4.000000,4.000000,4.000000,100.000000,,,,,,,,,,,,,,,,
1673442415.362804,16.000000,0.000000,4394.871582,4380.000000,4395.641113,4384.871582,4401.153809,4328.333496,4330.000000,4334.743652,4307.051270,4289.615234,4517.563965,4468.717773,4448.077148,4499.743652,0.000000,3.000000,80.000000,,,,0.000000,4.000000,4.000000,4.000000,4.000000,4.000000,4.000000,4.000000,4.000000,4.000000,4.000000,4.000000,4.000000,4.000000,4.000000,100.000000,,,,,,,,,,,,,,,,
1673442415.370617,17.000000,0.000000,4395.512695,4383.461426,4397.051270,4382.436035,4405.256348,4333.717773,4336.410156,4336.410156,4310.128418,4291.794922,4523.205078,4472.948730,4447.692383,4503.589844,0.000000,3.000000,80.000000,,,,0.000000,4.000000,4.000000,4.000000,4.000000,4.000000,4.000000,4.000000,4.000000,4.000000,4.000000,4.000000,4.000000,4.000000,4.000000,100.000000,,,,,,,,,,,,,,,,
1673442415.378429,18.000000,0.000000,4385.897461,4367.820313,4395.384766,4381.666504,4398.333496,4336.025879,4339.615234,4340.000000,4308.333496,4278.974121,4516.410156,4472.179688,4430.769043,4495.897461,0.000000,3.000000,80.000000,,,,0.000000,4.000000,4.000000,4.000000,4.000000,4.000000,4.000000,4.000000,4.000000,4.000000,4.000000,4.000000,4.000000,4.000000,4.000000,100.000000,,,,,,,,,,,,,,,,
1673442415.386242,19.000000,0.000000,4383.717773,4359.358887,4396.410156,4380.384766,4393.461426,4333.461426,4337.307617,4342.436035,4307.307617,4277.563965,4512.692383,4473.077148,4430.769043,4494.743652,0.000000,3.000000,80.000000,,,,0.000000,4.000000,4.000000,4.000000,4.000000,4.000000,4.000000,4.000000,4.000000,4.000000,4.000000,4.000000,4.000000,4.000000,4.000000,100.000000,,,,,,,,,,,,,,,,
1673442415.394054,20.000000,0.000000,4392.563965,4377.179688,4399.615234,4379.743652,4399.871582,4334.230957,4337.563965,4343.717773,4315.769043,4295.769043,4521.666504,4475.512695,4453.717773,4506.025879,0.000000,3.000000,80.000000,,,,0.000000,4.000000,4.000000,4.000000,4.000000,4.000000,4.000000,4.000000,4.000000,4.000000,4.000000,4.000000,4.000000,4.000000,4.000000,100.000000,,,,,,,,,,,,,,,,
1673442415.401867,21.000000,0.000000,4396.922852,4385.897461,4398.461426,4384.230957,4403.589844,4334.358887,4335.000000,4341.922852,4324.871582,4307.307617,4528.077148,4475.769043,4463.333496,4510.128418,0.000000,3.000000,80.000000,,,,0.000000,4.000000,4.000000,4.000000,4.000000,4.000000,4.000000,4.000000,4.000000,4.000000,4.000000,4.000000,4.000000,4.000000,4.000000,100.000000,,,,,,,,,,,,,,,,
1673442415.409679,22.000000,0.000000,4392.948730,4374.871582,4398.077148,4385.897461,4402.307617,4331.794922,4329.230957,4339.615234,4327.436035,4303.461426,4525.128418,4475.000000,4453.461426,4502.948730,0.000000,3.000000,80.000000,,,,0.000000,4.000000,4.000000,4.000000,4.000000,4.000000,4.000000,4.000000,4.000000,4.000000,4.000000,4.000000,4.000000,4.000000,4.000000,100.000000,,,,,,,,,,,,,,,,
1673442415.417492,23.000000,0.000000,4385.128418,4364.487305,4396.794922,4381.410156,4398.846191,4329.615234,4325.256348,4333.077148,4323.077148,4294.615234,4515.769043,4467.563965,4439.102539,4497.948730,0.000000,3.000000,80.000000,,,,0.000000,4.000000,4.000000,4.000000,4.000000,4.000000,4.000000,4.000000,4.000000,4.000000,4.000000,4.000000,4.000000,4.000000,4.000000,100.000000,,,,,,,,,,,,,,,,
1673442415.425304,24.000000,0.000000,4374.743652,4356.666504,4391.666504,4372.948730,4390.512695,4323.077148,4318.589844,4322.051270,4313.461426,4288.333496,4501.538574,4453.974121,4428.589844,4487.820313,0.000000,3.000000,80.000000,,,,0.000000,4.000000,4.000000,4.000000,4.000000,4.000000,4.000000,4.000000,4.000000,4.000000,4.000000,4.000000,4.000000,4.000000,4.000000,100.000000,,,,,,,,,,,,,,,,
1673442415.433117,25.000000,0.000000,4376.538574,4353.461426,4391.025879,4370.512695,4390.384766,4320.384766,4313.717773,4321.153809,4309.230957,4289.743652,4502.692383,4451.282227,4433.589844,4484.743652,0.000000,3.000000,80.000000,,,,0.000000,4.000000,4.000000,4.000000,4.000000,4.000000,4.000000,4.000000,4.000000,4.000000,4.000000,4.000000,4.000000,4.000000,4.000000,100.000000,,,,,,,,,,,,,,,,
1673442415.440929,26.000000,0.000000,4391.025879,4362.436035,4399.871582,4378.205078,4400.897461,4325.897461,4318.205078,4326.922852,4312.948730,4298.333496,4518.333496,4462.820313,4447.051270,4500.641113,0.000000,3.000000,80.000000,,,,0.000000,4.000000,4.000000,4.000000,4.000000,4.000000,4.000000,4.000000,4.000000,4.000000,4.000000,4.000000,4.000000,4.000000,4.000000,100.000000,,,,,,,,,,,,,,,,
1673442415.448742,27.000000,0.000000,4397.563965,4370.641113,4407.820313,4384.743652,4400.000000,4327.563965,4324.615234,4334.487305,4319.615234,4305.128418,4525.769043,4475.769043,4451.666504,4511.538574,0.000000,3.000000,80.000000,,,,0.000000,4.000000,4.000000,4.000000,4.000000,4.000000,4.000000,4.000000,4.000000,4.000000,4.000000,4.000000,4.000000,4.000000,4.000000,100.000000,,,,,,,,,,,,,,,,
1673442415.456554,28.000000,0.000000,4395.897461,4371.922852,4408.205078,4384.358887,4394.487305,4326.538574,4328.205078,4342.436035,4325.897461,4308.846191,4524.358887,4479.230957,4450.384766,4511.538574,0.000000,3.000000,80.000000,,,,0.000000,4.000000,4.000000,4.000000,4.000000,4.000000,4.000000,4.000000,4.000000,4.000000,4.000000,4.000000,4.000000,4.000000,4.000000,100.000000,,,,,,,,,,,,,,,,
1673442415.464367,29.000000,0.000000,4392.820313,4370.769043,4402.820313,4382.307617,4397.820313,4331.153809,4331.282227,4341.666504,4323.589844,4302.948730,4516.922852,4470.384766,4446.666504,4507.436035,0.000000,3.000000,80.000000,,,,0.000000,4.000000,4.000000,4.000000,4.000000,4.000000,4.000000,4.000000,4.000000,4.000000,4.000000,4.000000,4.000000,4.000000,4.000000,100.000000,,,,,,,,,,,,,,,,
1673442415.472179,30.000000,0.000000,4385.128418,4362.436035,4397.436035,4380.641113,4400.256348,4332.307617,4329.871582,4337.051270,4313.589844,4292.051270,4509.230957,4460.769043,4437.563965,4501.025879,0.000000,3.000000,80.000000,,,,0.000000,4.000000,4.000000,4.000000,4.000000,4.000000,4.000000,4.000000,4.000000,4.000000,4.000000,4.000000,4.000000,4.000000,4.000000,100.000000,,,,,,,,,,,,,,,,
1673442415.479992,31.000000,0.000000,4377.436035,4352.436035,4397.436035,4377.051270,4396.538574,4327.307617,4323.077148,4336.025879,4310.897461,4290.897461,4509.102539,4460.512695,4430.384766,4493.205078,0.000000,3.000000,80.000000,,,,0.000000,4.000000,4.000000,4.000000,4.000000,4.000000,4.000000,4.000000,4.000000,4.000000,4.000000,4.000000,4.000000,4.000000,4.000000,100.000000,,,,,,,,,,,,,,,,
1673442415.487804,32.000000,0.000000,4377.051270,4351.666504,4396.922852,4373.205078,4393.846191,4326.538574,4325.641113,4335.256348,4313.461426,4291.666504,4509.102539,4463.333496,4426.538574,4489.871582,0.000000,3.000000,80.000000,,,,0.000000,4.000000,4.000000,4.000000,4.000000,4.000000,4.000000,4.000000,4.000000,4.000000,4.000000,4.000000,4.000000,4.000000,4.000000,100.000000,,,,,,,,,,,,,,,,
1673442415.495617,33.000000,0.000000,4381.666504,4353.077148,4393.974121,4374.743652,4397.563965,4331.922852,4333.589844,4334.743652,4311.538574,4291.282227,4506.922852,4462.051270,4427.307617,4492.948730,0.000000,3.000000,80.000000,,,,0.000000,4.000000,4.000000,4.000000,4.000000,4.000000,4.000000,4.000000,4.000000,4.000000,4.000000,4.000000,4.000000,4.000000,4.000000,100.000000,,,,,,,,,,,,,,,,
1673442415.503429,34.000000,0.000000,4377.948730,4352.051270,4392.179688,4377.307617,4401.538574,4334.230957,4336.666504,4341.794922,4310.769043,4295.512695,4509.615234,4459.358887,4429.487305,4492.563965,0.000000,3.000000,80.000000,,,,0.000000,4.000000,4.000000,4.000000,4.000000,4.000000,4.000000,4.000000,4.000000,4.000000,4.000000,4.000000,4.000000,4.000000,4.000000,100.000000,,,,,,,,,,,,,,,,
1673442415.511242,35.000000,0.000000,4368.333496,4349.102539,4385.384766,4370.512695,4398.333496,4331.025879,4336.410156,4347.436035,4313.846191,4292.948730,4509.615234,4456.666504,4426.282227,4488.589844,0.000000,3.000000,80.000000,,,,0.000000,4.000000,4.000000,4.000000,4.000000,4.000000,4.000000,4.000000,4.000000,4.000000,4.000000,4.000000,4.000000,4.000000,4.000000,100.000000,,,,,,,,,,,,,,,,
1673442415.519054,36.000000,0.000000,4367.820313,4347.692383,4382.179688,4366.410156,4395.256348,4326.282227,4331.410156,4340.000000,4313.717773,4286.410156,4504.358887,4455.000000,4425.000000,4488.333496,0.000000,3.000000,80.000000,,,,0.000000,4.000000,4.000000,4.000000,4.000000,4.000000,4.000000,4.000000,4.000000,4.000000,4.000000,4.000000,4.000000,4.000000,4.000000,100.000000,,,,,,,,,,,,,,,,
1673442415.526867,37.000000,0.000000,4377.179688,4352.179688,4391.666504,4375.256348,4397.820313,4325.512695,4323.589844,4333.974121,4311.410156,4291.153809,4506.153809,4457.948730,4427.563965,4492.307617,0.000000,3.000000,80.000000,,,,0.000000,4.000000,4.000000,4.000000,4.000000,4.000000,4.000000,4.000000,4.000000,4.000000,4.000000,4.000000,4.000000,4.000000,4.000000,100.000000,,,,,,,,,,,,,,,,
1673442415.534679,38.000000,0.000000,4379.871582,4357.563965,4396.666504,4381.025879,4400.897461,4327.692383,4319.871582,4334.615234,4312.820313,4300.641113,4509.487305,4458.846191,4429.615234,4491.153809,0.000000,3.000000,80.000000,,,,0.000000,4.000000,4.000000,4.000000,4.000000,4.000000,4.000000,4.000000,4.000000,4.000000,4.000000,4.000000,4.000000,4.000000,4.000000,100.000000,,,,,,,,,,,,,,,,
1673442415.542492,39.000000,0.000000,4373.333496,4355.384766,4388.974121,4374.487305,4398.974121,4326.922852,4316.153809,4326.025879,4307.051270,4296.666504,4505.641113,4447.692383,4427.692383,4485.256348,0.000000,3.000000,80.000000,,,,0.000000,4.000000,4.000000,4.000000,4.000000,4.000000,4.000000,4.000000,4.000000,4.000000,4.000000,4.000000,4.000000,4.000000,4.000000,100.000000,,,,,,,,,,,,,,,,
1673442415.550304,40.000000,0.000000,4373.205078,4352.563965,4387.179688,4370.641113,4395.897461,4324.615234,4313.205078,4318.205078,4297.692383,4287.051270,4502.179688,4441.410156,4427.948730,4486.666504,0.000000,3.000000,80.000000,,,,0.000000,4.000000,4.000000,4.000000,4.000000,4.000000,4.000000,4.000000,4.000000,4.000000,4.000000,4.000000,4.000000,4.000000,4.000000,100.000000,,,,,,,,,,,,,,,,
1673442415.558117,41.000000,0.000000,4378.461426,4353.461426,4395.256348,4371.410156,4398.717773,4325.512695,4320.128418,4324.358887,4302.820313,4289.615234,4505.512695,4453.846191,4426.410156,4491.538574,0.000000,3.000000,80.000000,,,,0.000000,4.000000,4.000000,4.000000,4.000000,4.000000,4.000000,4.000000,4.000000,4.000000,4.000000,4.000000,4.000000,4.000000,4.000000,100.000000,,,,,,,,,,,,,,,,
1673442415.565929,42.000000,0.000000,4372.563965,4346.410156,4397.436035,4365.128418,4399.358887,4329.102539,4327.692383,4331.025879,4307.051270,4293.589844,4507.179688,4460.641113,4414.743652,4489.230957,0.000000,3.000000,80.000000,,,,0.000000,4.000000,4.000000,4.000000,4.000000,4.000000,4.000000,4.000000,4.000000,4.000000,4.000000,4.000000,4.000000,4.000000,4.000000,100.000000,,,,,,,,,,,,,,,,
1673442415.573742,43.000000,0.000000,4366.666504,4338.077148,4393.717773,4363.333496,4395.000000,4330.769043,4326.666504,4329.743652,4302.948730,4290.641113,4503.974121,4452.436035,4411.922852,4486.153809,0.000000,3.000000,80.000000,,,,0.000000,4.000000,4.000000,4.000000,4.000000,4.000000,4.000000,4.000000,4.000000,4.000000,4.000000,4.000000,4.000000,4.000000,4.000000,100.000000,,,,,,,,,,,,,,,,
1673442415.581554,44.000000,0.000000,4376.025879,4345.256348,4397.692383,4373.205078,4398.205078,4330.512695,4328.717773,4330.384766,4308.333496,4294.743652,4506.282227,4455.512695,4429.358887,4492.179688,0.000000,3.000000,80.000000,,,,0.000000,4.000000,4.000000,4.000000,4.000000,4.000000,4.000000,4.000000,4.000000,4.000000,4.000000,4.000000,4.000000,4.000000,4.000000,100.000000,,,,,,,,,,,,,,,,
1673442415.589367,45.000000,0.000000,4388.717773,4358.205078,4408.846191,4379.871582,4407.051270,4335.384766,4335.897461,4337.179688,4318.333496,4304.615234,4513.974121,4471.794922,4444.358887,4502.051270,0.000000,3.000000,80.000000,,,,0.000000,4.000000,4.000000,4.000000,4.000000,4.000000,4.000000,4.000000,4.000000,4.000000,4.000000,4.000000,4.000000,4.000000,4.000000,100.000000,,,,,,,,,,,,,,,,
1673442415.597179,46.000000,0.000000,4397.563965,4367.179688,4417.051270,4384.487305,4409.487305,4342.692383,4339.871582,4344.615234,4318.333496,4308.333496,4524.358887,4480.384766,4448.333496,4511.794922,0.000000,3.000000,80.000000,,,,0.000000,4.000000,4.000000,4.000000,4.000000,4.000000,4.000000,4.000000,4.000000,4.000000,4.000000,4.000000,4.000000,4.000000,4.000000,100.000000,,,,,,,,,,,,,,,,
1673442415.604992,47.000000,0.000000,4398.333496,4367.179688,4416.282227,4390.128418,4407.948730,4344.230957,4336.410156,4345.256348,4315.769043,4304.871582,4528.205078,4473.077148,4449.743652,4512.436035,0.000000,3.000000,80.000000,,,,0.000000,4.000000,4.000000,4.000000,4.000000,4.000000,4.000000,4.000000,4.000000,4.000000,4.000000,4.000000,4.000000,4.000000,4.000000,100.000000,,,,,,,,,,,,,,,,
1673442415.612804,48.000000,0.000000,4387.179688,4359.358887,4410.000000,4385.256348,4406.922852,4339.615234,4330.512695,4334.871582,4312.563965,4296.666504,4513.974121,4460.641113,4441.794922,4496.666504,0.000000,3.000000,80.000000,,,,0.000000,4.000000,4.000000,4.000000,4.000000,4.000000,4.000000,4.000000,4.000000,4.000000,4.000000,4.000000,4.000000,4.000000,4.000000,100.000000,,,,,,,,,,,,,,,,
1673442415.620617,49.000000,0.000000,4383.077148,4361.282227,4408.333496,4383.077148,4407.307617,4338.717773,4328.205078,4326.538574,4305.512695,4289.615234,4504.358887,4455.128418,4433.717773,4488.974121,0.000000,3.000000,80.000000,,,,0.000000,4.000000,4.000000,4.000000,4.000000,4.000000,4.000000,4.000000,4.000000,4.000000,4.000000,4.000000,4.000000,4.000000,4.000000,100.000000,,,,,,,,,,,,,,,,
1673442415.628429,50.000000,0.000000,4391.410156,4370.769043,4413.205078,4395.000000,4411.410156,4341.794922,4328.205078,4330.384766,4307.307617,4294.871582,4517.051270,4457.820313,4441.153809,4499.358887,0.000000,3.000000,80.000000,,,,0.000000,4.000000,4.000000,4.000000,4.000000,4.000000,4.000000,4.000000,4.000000,4.000000,4.000000,4.000000,4.000000,4.000000,4.000000,100.000000,,,,,,,,,,,,,,,,
1673442415.636242,51.000000,0.000000,4394.487305,4372.307617,4413.333496,4395.128418,4415.512695,4343.077148,4327.692383,4337.692383,4316.922852,4309.358887,4525.641113,4460.000000,4449.487305,4502.436035,0.000000,3.000000,80.000000,,,,0.000000,4.000000,4.000000,4.000000,4.000000,4.000000,4.000000,4.000000,4.000000,4.000000,4.000000,4.000000,4.000000,4.000000,4.000000,100.000000,,,,,,,,,,,,,,,,
1673442415.644054,52.000000,0.000000,4389.487305,4367.436035,4406.922852,4383.717773,4415.897461,4341.922852,4331.153809,4334.871582,4320.384766,4315.000000,4518.461426,4457.179688,4446.794922,4496.794922,0.000000,3.000000,80.000000,,,,0.000000,4.000000,4.000000,4.000000,4.000000,4.000000,4.000000,4.000000,4.000000,4.000000,4.000000,4.000000,4.000000,4.000000,4.000000,100.000000,,,,,,,,,,,,,,,,
1673442415.651867,53.000000,0.000000,4383.974121,4362.820313,4402.307617,4381.025879,4412.563965,4339.615234,4335.000000,4330.769043,4318.205078,4306.153809,4517.692383,4453.333496,4441.922852,4493.974121,0.000000,3.000000,80.000000,,,,0.000000,4.000000,4.000000,4.000000,4.000000,4.000000,4.000000,4.000000,4.000000,4.000000,4.000000,4.000000,4.000000,4.000000,4.000000,100.000000,,,,,,,,,,,,,,,,
1673442415.659679,54.000000,0.000000,4383.717773,4360.000000,4402.692383,4383.974121,4408.205078,4336.410156,4332.820313,4336.794922,4317.692383,4303.205078,4523.717773,4455.000000,4444.871582,4496.410156,0.000000,3.000000,80.000000,,,,0.000000,4.000000,4.000000,4.000000,4.000000,4.000000,4.000000,4.000000,4.000000,4.000000,4.000000,4.000000,4.000000,4.000000,4.000000,100.000000,,,,,,,,,,,,,,,,
1673442415.667492,55.000000,0.000000,4388.077148,4359.230957,4408.077148,4383.974121,4406.025879,4335.384766,4333.077148,4342.948730,4324.871582,4310.000000,4522.563965,4460.769043,4447.436035,4501.922852,0.000000,3.000000,80.000000,,,,0.000000,4.000000,4.000000,4.000000,4.000000,4.000000,4.000000,4.000000,4.000000,4.000000,4.000000,4.000000,4.000000,4.000000,4.000000,100.000000,,,,,,,,,,,,,,,,
1673442415.675304,56.000000,0.000000,4389.615234,4361.282227,4415.897461,4384.230957,4408.846191,4339.871582,4337.563965,4342.692383,4328.461426,4306.410156,4521.666504,4461.922852,4444.487305,4501.922852,0.000000,3.000000,80.000000,,,,0.000000,4.000000,4.000000,4.000000,4.000000,4.000000,4.000000,4.000000,4.000000,4.000000,4.000000,4.000000,4.000000,4.000000,4.000000,100.000000,,,,,,,,,,,,,,,,
1673442415.683117,57.000000,0.000000,4385.512695,4361.538574,4416.922852,4384.230957,4410.769043,4337.948730,4336.282227,4339.743652,4320.769043,4298.846191,4521.153809,4462.051270,4440.256348,4495.641113,0.000000,3.000000,80.000000,,,,0.000000,4.000000,4.000000,4.000000,4.000000,4.000000,4.000000,4.000000,4.000000,4.000000,4.000000,4.000000,4.000000,4.000000,4.000000,100.000000,,,,,,,,,,,,,,,,
1673442415.690929,58.000000,0.000000,4380.128418,4354.743652,4409.615234,4379.871582,4403.717773,4329.743652,4331.410156,4336.922852,4313.717773,4297.820313,4514.102539,4458.461426,4433.205078,4489.102539,0.000000,3.000000,80.000000,,,,0.000000,4.000000,4.000000,4.000000,4.000000,4.000000,4.000000,4.000000,4.000000,4.000000,4.000000,4.000000,4.000000,4.000000,4.000000,100.000000,,,,,,,,,,,,,,,,
1673442415.698742,59.000000,0.000000,4376.538574,4348.589844,4405.000000,4375.384766,4398.589844,4328.589844,4326.922852,4331.538574,4310.897461,4292.948730,4505.384766,4448.077148,4426.153809,4485.897461,0.000000,3.000000,80.000000,,,,0.000000,4.000000,4.000000,4.000000,4.000000,4.000000,4.000000,4.000000,4.000000,4.000000,4.000000,4.000000,4.000000,4.000000,4.000000,100.000000,,,,,,,,,,,,,,,,
1673442415.706554,60.000000,0.000000,4375.897461,4354.230957,4406.794922,4377.051270,4407.307617,4339.358887,4327.820313,4329.743652,4308.974121,4287.563965,4502.563965,4449.102539,4425.000000,4484.871582,0.000000,3.000000,80.000000,,,,0.000000,4.000000,4.000000,4.000000,4.000000,4.000000,4.000000,4.000000,4.000000,4.000000,4.000000,4.000000,4.000000,4.000000,4.000000,100.000000,,,,,,,,,,,,,,,,
1673442415.714367,61.000000,0.000000,4377.820313,4358.333496,4406.282227,4379.358887,4413.589844,4348.974121,4333.717773,4334.230957,4308.974121,4291.922852,4502.948730,4456.282227,4426.794922,4485.128418,0.000000,3.000000,80.000000,,,,0.000000,4.000000,4.000000,4.000000,4.000000,4.000000,4.000000,4.000000,4.000000,4.000000,4.000000,4.000000,4.000000,4.000000,4.000000,100.000000,,,,,,,,,,,,,,,,
1673442415.722179,62.000000,0.000000,4376.794922,4355.384766,4402.948730,4378.077148,4409.743652,4346.538574,4332.307617,4331.794922,4308.077148,4295.512695,4505.897461,4456.153809,4428.077148,4486.153809,0.000000,3.000000,80.000000,,,,0.000000,4.000000,4.000000,4.000000,4.000000,4.000000,4.000000,4.000000,4.000000,4.000000,4.000000,4.000000,4.000000,4.000000,4.000000,100.000000,,,,,,,,,,,,,,,,
1673442415.729992,63.000000,0.000000,4379.102539,4356.410156,4405.512695,4378.333496,4408.205078,4342.307617,4328.589844,4331.410156,4308.589844,4295.384766,4515.512695,4454.615234,4434.230957,4488.333496,0.000000,3.000000,80.000000,,,,0.000000,4.000000,4.000000,4.000000,4.000000,4.000000,4.000000,4.000000,4.000000,4.000000,4.000000,4.000000,4.000000,4.000000,4.000000,100.000000,,,,,,,,,,,,,,,,
1673442415.737804,64.000000,0.000000,4386.282227,4357.307617,4412.179688,4378.846191,4406.153809,4339.615234,4334.615234,4341.410156,4319.358887,4305.384766,4525.128418,4463.461426,4444.358887,4496.538574,0.000000,3.000000,80.000000,,,,0.000000,4.000000,4.000000,4.000000,4.000000,4.000000,4.000000,4.000000,4.000000,4.000000,4.000000,4.000000,4.000000,4.000000,4.000000,100.000000,,,,,,,,,,,,,,,,
1673442415.745617,65.000000,0.000000,4384.230957,4347.563965,4412.563965,4374.615234,4398.461426,4334.871582,4338.717773,4347.307617,4325.897461,4314.487305,4526.922852,4472.563965,4446.794922,4502.692383,0.000000,3.000000,80.000000,,,,0.000000,4.000000,4.000000,4.000000,4.000000,4.000000,4.000000,4.000000,4.000000,4.000000,4.000000,4.000000,4.000000,4.000000,4.000000,100.000000,,,,,,,,,,,,,,,,
1673442415.753429,66.000000,0.000000,4377.307617,4340.512695,4410.128418,4373.717773,4396.794922,4332.692383,4331.025879,4342.948730,4316.410156,4306.410156,4524.102539,4468.717773,4440.384766,4499.871582,0.000000,3.000000,80.000000,,,,0.000000,4.000000,4.000000,4.000000,4.000000,4.000000,4.000000,4.000000,4.000000,4.000000,4.000000,4.000000,4.000000,4.000000,4.000000,100.000000,1.000000,100.000000,4.000000,4.000000,4.000000,4.000000,4.000000,4.000000,4.000000,4.000000,4.000000,4.000000,4.000000,4.000000,4.000000,4.000000
1673442415.761242,67.000000,0.000000,4378.205078,4346.025879,4412.307617,4380.384766,4404.230957,4334.871582,4326.794922,4339.615234,4310.897461,4296.153809,4519.102539,4462.179688,4436.153809,4494.230957,0.000000,3.000000,80.000000,,,,0.000000,4.000000,4.000000,4.000000,4.000000,4.000000,4.000000,4.000000,4.000000,4.000000,4.000000,4.000000,4.000000,4.000000,4.000000,100.000000,,,,,,,,,,,,,,,,
1673442415.769054,68.000000,0.000000,4378.589844,4346.922852,4413.717773,4378.461426,4408.846191,4334.358887,4328.717773,4340.128418,4315.128418,4293.846191,4510.384766,4459.743652,4432.820313,4491.538574,0.000000,3.000000,80.000000,,,,0.000000,4.000000,4.000000,4.000000,4.000000,4.000000,4.000000,4.000000,4.000000,4.000000,4.000000,4.000000,4.000000,4.000000,4.000000,100.000000,,,,,,,,,,,,,,,,
1673442415.776867,69.000000,0.000000,4376.025879,4345.512695,4412.820313,4375.128418,4409.230957,4332.051270,4327.692383,4336.025879,4313.077148,4294.358887,4504.102539,4462.307617,4426.922852,4492.179688,0.000000,3.000000,80.000000,,,,0.000000,4.000000,4.000000,4.000000,4.000000,4.000000,4.000000,4.000000,4.000000,4.000000,4.000000,4.000000,4.000000,4.000000,4.000000,100.000000,,,,,,,,,,,,,,,,
1673442415.784679,70.000000,0.000000,4374.743652,4347.820313,4409.487305,4380.769043,4408.974121,4335.384766,4326.794922,4331.922852,4307.948730,4293.589844,4505.000000,4457.307617,4424.487305,4488.717773,0.000000,3.000000,80.000000,,,,0.000000,4.000000,4.000000,4.000000,4.000000,4.000000,4.000000,4.000000,4.000000,4.000000,4.000000,4.000000,4.000000,4.000000,4.000000,100.000000,,,,,,,,,,,,,,,,
1673442415.792492,71.000000,0.000000,4373.846191,4347.051270,4403.205078,4380.512695,4404.615234,4335.641113,4326.025879,4333.205078,4307.563965,4293.333496,4506.282227,4447.692383,4427.051270,4488.974121,0.000000,3.000000,80.000000,,,,0.000000,4.000000,4.000000,4.000000,4.000000,4.000000,4.000000,4.000000,4.000000,4.000000,4.000000,4.000000,4.000000,4.000000,4.000000,100.000000,,,,,,,,,,,,,,,,
1673442415.800304,72.000000,0.000000,4376.410156,4345.512695,4406.025879,4377.820313,4403.077148,4335.384766,4328.589844,4333.974121,4308.717773,4297.563965,4508.461426,4452.307617,4428.589844,4492.948730,0.000000,3.000000,80.000000,,,,0.000000,4.000000,4.000000,4.000000,4.000000,4.000000,4.000000,4.000000,4.000000,4.000000,4.000000,4.000000,4.000000,4.000000,4.000000,100.000000,,,,,,,,,,,,,,,,
1673442415.808117,73.000000,0.000000,4379.615234,4347.307617,4410.512695,4379.615234,4407.051270,4339.871582,4335.128418,4332.948730,4312.051270,4302.051270,4511.153809,4461.794922,4429.487305,4493.205078,0.000000,3.000000,80.000000,,,,0.000000,4.000000,4.000000,4.000000,4.000000,4.000000,4.000000,4.000000,4.000000,4.000000,4.000000,4.000000,4.000000,4.000000,4.000000,100.000000,,,,,,,,,,,,,,,,
1673442415.815929,74.000000,0.000000,4373.205078,4346.922852,4401.153809,4377.692383,4405.512695,4344.102539,4333.717773,4332.692383,4313.077148,4301.922852,4508.974121,4453.846191,4429.743652,4491.025879,0.000000,3.000000,80.000000,,,,0.000000,4.000000,4.000000,4.000000,4.000000,4.000000,4.000000,4.000000,4.000000,4.000000,4.000000,4.000000,4.000000,4.000000,4.000000,100.000000,,,,,,,,,,,,,,,,
1673442415.823742,75.000000,0.000000,4369.615234,4339.615234,4392.948730,4372.692383,4400.769043,4342.948730,4326.025879,4332.563965,4310.384766,4301.282227,4510.384766,4441.538574,4429.102539,4489.487305,0.000000,3.000000,80.000000,,,,0.000000,4.000000,4.000000,4.000000,4.000000,4.000000,4.000000,4.000000,4.000000,4.000000,4.000000,4.000000,4.000000,4.000000,4.000000,100.000000,,,,,,,,,,,,,,,,
1673442415.831554,76.000000,0.000000,4375.000000,4338.589844,4400.512695,4374.102539,4404.871582,4341.666504,4326.025879,4331.153809,4311.410156,4303.205078,4511.922852,4447.436035,4432.051270,4491.922852,0.000000,3.000000,80.000000,,,,0.000000,4.000000,4.000000,4.000000,4.000000,4.000000,4.000000,4.000000,4.000000,4.000000,4.000000,4.000000,4.000000,4.000000,4.000000,100.000000,,,,,,,,,,,,,,,,
1673442415.839367,77.000000,0.000000,4374.871582,4340.769043,4403.717773,4376.282227,4409.487305,4340.512695,4322.179688,4326.410156,4311.794922,4299.615234,4506.794922,4450.384766,4429.358887,4488.333496,0.000000,3.000000,80.000000,,,,0.000000,4.000000,4.000000,4.000000,4.000000,4.000000,4.000000,4.000000,4.000000,4.000000,4.000000,4.000000,4.000000,4.000000,4.000000,100.000000,,,,,,,,,,,,,,,,
1673442415.847179,78.000000,0.000000,4367.820313,4338.589844,4395.897461,4374.230957,4403.077148,4333.846191,4309.871582,4324.102539,4310.128418,4294.743652,4503.974121,4442.948730,4420.897461,4478.846191,0.000000,3.000000,80.000000,,,,0.000000,4.000000,4.000000,4.000000,4.000000,4.000000,4.000000,4.000000,4.000000,4.000000,4.000000,4.000000,4.000000,4.000000,4.000000,100.000000,,,,,,,,,,,,,,,,
1673442415.854992,79.000000,0.000000,4365.128418,4340.897461,4397.692383,4378.333496,4400.512695,4332.179688,4314.230957,4323.846191,4307.692383,4294.487305,4501.922852,4443.974121,4415.128418,4475.384766,0.000000,3.000000,80.000000,,,,0.000000,4.000000,4.000000,4.000000,4.000000,4.000000,4.000000,4.000000,4.000000,4.000000,4.000000,4.000000,4.000000,4.000000,4.000000,100.000000,,,,,,,,,,,,,,,,
1673442415.862804,80.000000,0.000000,4363.333496,4342.948730,4401.153809,4381.025879,4406.282227,4339.102539,4326.922852,4320.128418,4298.974121,4291.538574,4491.025879,4443.333496,4412.179688,4475.256348,0.000000,3.000000,80.000000,,,,0.000000,4.000000,4.000000,4.000000,4.000000,4.000000,4.000000,4.000000,4.000000,4.000000,4.000000,4.000000,4.000000,4.000000,4.000000,100.000000,,,,,,,,,,,,,,,,
1673442415.870617,81.000000,0.000000,4362.307617,4338.974121,4397.563965,4378.717773,4408.461426,4343.974121,4324.358887,4316.282227,4295.256348,4285.000000,4487.563965,4437.563965,4415.000000,4474.358887,0.000000,3.000000,80.000000,,,,0.000000,4.000000,4.000000,4.000000,4.000000,4.000000,4.000000,4.000000,4.000000,4.000000,4.000000,4.000000,4.000000,4.000000,4.000000,100.000000,,,,,,,,,,,,,,,,
1673442415.878429,82.000000,0.000000,4369.102539,4340.256348,4398.333496,4381.666504,4409.487305,4347.563965,4317.692383,4313.589844,4300.384766,4283.461426,4496.538574,4442.307617,4423.974121,4475.256348,0.000000,3.000000,80.000000,,,,0.000000,4.000000,4.000000,4.000000,4.000000,4.000000,4.000000,4.000000,4.000000,4.000000,4.000000,4.000000,4.000000,4.000000,4.000000,100.000000,,,,,,,,,,,,,,,,
1673442415.886242,83.000000,0.000000,4372.051270,4348.077148,4398.589844,4383.974121,4411.922852,4351.538574,4321.538574,4311.666504,4299.487305,4286.153809,4492.820313,4441.922852,4426.794922,4476.410156,0.000000,3.000000,80.000000,,,,0.000000,4.000000,4.000000,4.000000,4.000000,4.000000,4.000000,4.000000,4.000000,4.000000,4.000000,4.000000,4.000000,4.000000,4.000000,100.000000,,,,,,,,,,,,,,,,
1673442415.894054,84.000000,0.000000,4366.410156,4348.205078,4392.436035,4378.333496,4413.333496,4350.256348,4325.256348,4311.794922,4297.820313,4287.820313,4488.717773,4429.615234,4425.000000,4475.256348,0.000000,3.000000,80.000000,,,,0.000000,4.000000,4.000000,4.000000,4.000000,4.000000,4.000000,4.000000,4.000000,4.000000,4.000000,4.000000,4.000000,4.000000,4.000000,100.000000,,,,,,,,,,,,,,,,
1673442415.901867,85.000000,0.000000,4365.256348,4341.153809,4390.128418,4372.692383,4413.846191,4347.307617,4324.230957,4315.512695,4306.153809,4291.794922,4500.256348,4431.410156,4432.436035,4472.948730,0.000000,3.000000,80.000000,,,,0.000000,4.000000,4.000000,4.000000,4.000000,4.000000,4.000000,4.000000,4.000000,4.000000,4.000000,4.000000,4.000000,4.000000,4.000000,100.000000,,,,,,,,,,,,,,,,
1673442415.909679,86.000000,0.000000,4368.077148,4341.025879,4393.717773,4373.974121,4413.077148,4345.897461,4326.282227,4323.077148,4312.820313,4296.410156,4509.871582,4442.179688,4446.410156,4475.000000,0.000000,3.000000,80.000000,,,,0.000000,4.000000,4.000000,4.000000,4.000000,4.000000,4.000000,4.000000,4.000000,4.000000,4.000000,4.000000,4.000000,4.000000,4.000000,100.000000,,,,,,,,,,,,,,,,
1673442415.917492,87.000000,0.000000,4372.179688,4349.743652,4398.205078,4381.025879,4410.256348,4337.948730,4331.410156,4327.692383,4314.102539,4300.512695,4516.153809,4447.179688,4457.051270,4486.282227,0.000000,3.000000,80.000000,,,,0.000000,4.000000,4.000000,4.000000,4.000000,4.000000,4.000000,4.000000,4.000000,4.000000,4.000000,4.000000,4.000000,4.000000,4.000000,100.000000,,,,,,,,,,,,,,,,
1673442415.925304,88.000000,0.000000,4382.051270,4359.615234,4407.820313,4391.282227,4411.794922,4334.743652,4335.512695,4331.282227,4319.230957,4310.641113,4527.307617,4458.974121,4463.846191,4496.410156,0.000000,3.000000,80.000000,,,,0.000000,4.000000,4.000000,4.000000,4.000000,4.000000,4.000000,4.000000,4.000000,4.000000,4.000000,4.000000,4.000000,4.000000,4.000000,100.000000,,,,,,,,,,,,,,,,
1673442415.933117,89.000000,0.000000,4386.538574,4359.871582,4409.871582,4390.256348,4415.384766,4342.179688,4336.922852,4337.563965,4323.717773,4316.025879,4527.307617,4465.769043,4463.846191,4490.128418,0.000000,3.000000,80.000000,,,,0.000000,4.000000,4.000000,4.000000,4.000000,4.000000,4.000000,4.000000,4.000000,4.000000,4.000000,4.000000,4.000000,4.000000,4.000000,100.000000,,,,,,,,,,,,,,,,
1673442415.940929,90.000000,0.000000,4375.512695,4354.871582,4397.948730,4378.589844,4413.589844,4341.666504,4332.179688,4333.333496,4321.410156,4304.487305,4514.615234,4449.230957,4456.282227,4478.717773,0.000000,3.000000,80.000000,,,,0.000000,4.000000,4.000000,4.000000,4.000000,4.000000,4.000000,4.000000,4.000000,4.000000,4.000000,4.000000,4.000000,4.000000,4.000000,100.000000,,,,,,,,,,,,,,,,
1673442415.948742,91.000000,0.000000,4365.384766,4349.743652,4391.666504,4376.025879,4407.307617,4332.051270,4324.230957,4324.230957,4315.000000,4291.282227,4505.512695,4437.948730,4443.461426,4472.179688,0.000000,3.000000,80.000000,,,,0.000000,4.000000,4.000000,4.000000,4.000000,4.000000,4.000000,4.000000,4.000000,4.000000,4.000000,4.000000,4.000000,4.000000,4.000000,100.000000,,,,,,,,,,,,,,,,
1673442415.956554,92.000000,0.000000,4363.846191,4347.051270,4392.179688,4379.615234,4404.871582,4331.538574,4319.871582,4322.820313,4308.589844,4292.436035,4500.512695,4442.179688,4436.025879,4464.102539,0.000000,3.000000,80.000000,,,,0.000000,4.000000,4.000000,4.000000,4.000000,4.000000,4.000000,4.000000,4.000000,4.000000,4.000000,4.000000,4.000000,4.000000,4.000000,100.000000,,,,,,,,,,,,,,,,
1673442415.964367,93.000000,0.000000,4363.461426,4348.846191,4386.025879,4379.615234,4404.871582,4338.589844,4323.333496,4324.230957,4309.615234,4296.922852,4499.230957,4438.974121,4437.179688,4461.538574,0.000000,3.000000,80.000000,,,,0.000000,4.000000,4.000000,4.000000,4.000000,4.000000,4.000000,4.000000,4.000000,4.000000,4.000000,4.000000,4.000000,4.000000,4.000000,100.000000,,,,,,,,,,,,,,,,
1673442415.972179,94.000000,0.000000,4366.025879,4354.871582,4387.436035,4384.102539,4405.000000,4343.589844,4335.384766,4330.769043,4321.922852,4299.615234,4506.025879,4441.025879,4443.333496,4470.897461,0.000000,3.000000,80.000000,,,,0.000000,4.000000,4.000000,4.000000,4.000000,4.000000,4.000000,4.000000,4.000000,4.000000,4.000000,4.000000,4.000000,4.000000,4.000000,100.000000,,,,,,,,,,,,,,,,
1673442415.979992,95.000000,0.000000,4371.794922,4358.589844,4397.179688,4387.948730,4409.102539,4345.897461,4339.358887,4339.743652,4328.717773,4303.974121,4512.307617,4454.358887,4448.205078,4477.692383,0.000000,3.000000,80.000000,,,,0.000000,4.000000,4.000000,4.000000,4.000000,4.000000,4.000000,4.000000,4.000000,4.000000,4.000000,4.000000,4.000000,4.000000,4.000000,100.000000,,,,,,,,,,,,,,,,
1673442415.987804,96.000000,0.000000,4372.820313,4352.051270,4396.538574,4379.487305,4409.230957,4344.871582,4331.025879,4340.512695,4324.102539,4302.051270,4515.000000,4460.512695,4446.666504,4473.717773,0.000000,3.000000,80.000000,,,,0.000000,4.000000,4.000000,4.000000,4.000000,4.000000,4.000000,4.000000,4.000000,4.000000,4.000000,4.000000,4.000000,4.000000,4.000000,100.000000,,,,,,,,,,,,,,,,
1673442415.995617,97.000000,0.000000,4370.641113,4346.025879,4393.461426,4373.974121,4402.948730,4341.922852,4326.794922,4337.563965,4323.205078,4299.871582,4519.358887,4458.077148,4443.461426,4472.307617,0.000000,3.000000,80.000000,,,,0.000000,4.000000,4.000000,4.000000,4.000000,4.000000,4.000000,4.000000,4.000000,4.000000,4.000000,4.000000,4.000000,4.000000,4.000000,100.000000,,,,,,,,,,,,,,,,
1673442416.003429,98.000000,0.000000,4369.230957,4344.358887,4395.256348,4376.666504,4398.077148,4341.025879,4329.230957,4340.256348,4327.436035,4303.589844,4522.948730,4459.102539,4444.102539,4476.666504,0.000000,3.000000,80.000000,,,,0.000000,4.000000,4.000000,4.000000,4.000000,4.000000,4.000000,4.000000,4.000000,4.000000,4.000000,4.000000,4.000000,4.000000,4.000000,100.000000,,,,,,,,,,,,,,,,
1673442416.011242,99.000000,0.000000,4368.461426,4342.179688,4391.538574,4373.589844,4400.000000,4342.692383,4332.051270,4344.871582,4327.948730,4309.102539,4522.692383,4462.692383,4445.000000,4477.051270,0.000000,3.000000,80.000000,,,,0.000000,4.000000,4.000000,4.000000,4.000000,4.000000,4.000000,4.000000,4.000000,4.000000,4.000000,4.000000,4.000000,4.000000,4.000000,100.000000,,,,,,,,,,,,,,,,
1673442416.019054,100.000000,0.000000,4368.974121,4342.820313,4386.410156,4369.102539,4402.436035,4342.179688,4333.974121,4343.333496,4325.769043,4312.436035,4520.641113,4458.461426,4445.512695,4476.025879,0.000000,3.000000,80.000000,,,,0.000000,4.000000,4.000000,4.000000,4.000000,4.000000,4.000000,4.000000,4.000000,4.000000,4.000000,4.000000,4.000000,4.000000,4.000000,100.000000,,,,,,,,,,,,,,,,
1673442416.026867,101.000000,0.000000,4369.487305,4342.820313,4389.871582,4372.948730,4398.846191,4336.282227,4332.436035,4342.820313,4323.461426,4310.641113,4521.794922,4458.205078,4443.846191,4478.974121,0.000000,3.000000,80.000000,,,,0.000000,4.000000,4.000000,4.000000,4.000000,4.000000,4.000000,4.000000,4.000000,4.000000,4.000000,4.000000,4.000000,4.000000,4.000000,100.000000,,,,,,,,,,,,,,,,
1673442416.034679,102.000000,0.000000,4373.974121,4345.769043,4398.589844,4378.589844,4398.205078,4334.358887,4327.692383,4345.769043,4318.205078,4306.025879,4524.743652,4469.615234,4443.974121,4483.333496,0.000000,3.000000,80.000000,,,,0.000000,4.000000,4.000000,4.000000,4.000000,4.000000,4.000000,4.000000,4.000000,4.000000,4.000000,4.000000,4.000000,4.000000,4.000000,100.000000,,,,,,,,,,,,,,,,
1673442416.042492,103.000000,0.000000,4375.256348,4350.128418,4399.487305,4376.153809,4398.589844,4333.846191,4326.153809,4339.871582,4308.077148,4295.000000,4514.871582,4469.102539,4438.461426,4481.025879,0.000000,3.000000,80.000000,,,,0.000000,4.000000,4.000000,4.000000,4.000000,4.000000,4.000000,4.000000,4.000000,4.000000,4.000000,4.000000,4.000000,4.000000,4.000000,100.000000,,,,,,,,,,,,,,,,
1673442416.050304,104.000000,0.000000,4366.794922,4342.179688,4391.410156,4369.230957,4396.153809,4329.743652,4326.794922,4326.538574,4301.538574,4279.358887,4500.512695,4455.384766,4422.563965,4473.589844,0.000000,3.000000,80.000000,,,,0.000000,4.000000,4.000000,4.000000,4.000000,4.000000,4.000000,4.000000,4.000000,4.000000,4.000000,4.000000,4.000000,4.000000,4.000000,100.000000,,,,,,,,,,,,,,,,
1673442416.058117,105.000000,0.000000,4367.179688,4332.436035,4389.615234,4367.820313,4396.922852,4330.641113,4329.358887,4323.461426,4304.358887,4274.871582,4500.641113,4453.974121,4416.282227,4472.179688,0.000000,3.000000,80.000000,,,,0.000000,4.000000,4.000000,4.000000,4.000000,4.000000,4.000000,4.000000,4.000000,4.000000,4.000000,4.000000,4.000000,4.000000,4.000000,100.000000,,,,,,,,,,,,,,,,
1673442416.065929,106.000000,0.000000,4376.794922,4339.230957,4395.641113,4369.230957,4401.538574,4336.153809,4335.641113,4332.563965,4309.871582,4284.230957,4507.307617,4462.179688,4426.922852,4482.179688,0.000000,3.000000,80.000000,,,,0.000000,4.000000,4.000000,4.000000,4.000000,4.000000,4.000000,4.000000,4.000000,4.000000,4.000000,4.000000,4.000000,4.000000,4.000000,100.000000,,,,,,,,,,,,,,,,
1673442416.073742,107.000000,0.000000,4378.974121,4347.436035,4398.205078,4371.538574,4400.384766,4335.641113,4336.025879,4336.282227,4312.692383,4293.333496,4506.410156,4460.897461,4430.000000,4490.897461,0.000000,3.000000,80.000000,,,,0.000000,4.000000,4.000000,4.000000,4.000000,4.000000,4.000000,4.000000,4.000000,4.000000,4.000000,4.000000,4.000000,4.000000,4.000000,100.000000,,,,,,,,,,,,,,,,
1673442416.081554,108.000000,0.000000,4377.436035,4346.794922,4395.512695,4377.948730,4401.794922,4333.205078,4329.358887,4333.717773,4315.641113,4296.025879,4507.179688,4459.230957,4430.000000,4489.871582,0.000000,3.000000,80.000000,,,,0.000000,4.000000,4.000000,4.000000,4.000000,4.000000,4.000000,4.000000,4.000000,4.000000,4.000000,4.000000,4.000000,4.000000,4.000000,100.000000,,,,,,,,,,,,,,,,
1673442416.089367,109.000000,0.000000,4376.538574,4347.692383,4392.307617,4379.487305,4405.384766,4333.974121,4324.743652,4332.948730,4313.461426,4292.307617,4510.769043,4460.512695,4437.563965,4486.666504,0.000000,3.000000,80.000000,,,,0.000000,4.000000,4.000000,4.000000,4.000000,4.000000,4.000000,4.000000,4.000000,4.000000,4.000000,4.000000,4.000000,4.000000,4.000000,100.000000,,,,,,,,,,,,,,,,
1673442416.097179,110.000000,0.000000,4374.487305,4350.384766,4388.974121,4374.487305,4402.436035,4336.410156,4327.436035,4332.179688,4308.589844,4289.102539,4510.897461,4457.307617,4439.615234,4489.615234,0.000000,3.000000,80.000000,,,,0.000000,4.000000,4.000000,4.000000,4.000000,4.000000,4.000000,4.000000,4.000000,4.000000,4.000000,4.000000,4.000000,4.000000,4.000000,100.000000,,,,,,,,,,,,,,,,
1673442416.104992,111.000000,0.000000,4376.282227,4354.615234,4387.820313,4376.538574,4405.384766,4341.282227,4336.153809,4332.820313,4316.025879,4299.487305,4516.025879,4458.461426,4438.974121,4491.538574,0.000000,3.000000,80.000000,,,,0.000000,4.000000,4.000000,4.000000,4.000000,4.000000,4.000000,4.000000,4.000000,4.000000,4.000000,4.000000,4.000000,4.000000,4.000000,100.000000,,,,,,,,,,,,,,,,
1673442416.112804,112.000000,0.000000,4378.974121,4356.538574,4389.358887,4385.897461,4408.205078,4342.563965,4338.333496,4335.384766,4325.384766,4307.692383,4519.487305,4460.384766,4438.589844,4486.922852,0.000000,3.000000,80.000000,,,,0.000000,4.000000,4.000000,4.000000,4.000000,4.000000,4.000000,4.000000,4.000000,4.000000,4.000000,4.000000,4.000000,4.000000,4.000000,100.000000,,,,,,,,,,,,,,,,
1673442416.120617,113.000000,0.000000,4372.179688,4350.512695,4390.512695,4384.230957,4401.666504,4338.589844,4332.948730,4333.717773,4317.307617,4301.282227,4516.538574,4458.846191,4432.307617,4480.641113,0.000000,3.000000,80.000000,,,,0.000000,4.000000,4.000000,4.000000,4.000000,4.000000,4.000000,4.000000,4.000000,4.000000,4.000000,4.000000,4.000000,4.000000,4.000000,100.000000,,,,,,,,,,,,,,,,
1673442416.128429,114.000000,0.000000,4362.436035,4341.282227,4392.692383,4376.282227,4399.358887,4340.512695,4333.205078,4332.948730,4311.153809,4296.153809,4511.282227,4458.205078,4425.000000,4472.307617,0.000000,3.000000,80.000000,,,,0.000000,4.000000,4.000000,4.000000,4.000000,4.000000,4.000000,4.000000,4.000000,4.000000,4.000000,4.000000,4.000000,4.000000,4.000000,100.000000,,,,,,,,,,,,,,,,
1673442416.136242,115.000000,0.000000,4365.897461,4344.358887,4395.128418,4379.358887,4403.205078,4344.358887,4337.179688,4338.077148,4315.256348,4300.384766,4512.692383,4460.641113,4429.615234,4475.641113,0.000000,3.000000,80.000000,,,,0.000000,4.000000,4.000000,4.000000,4.000000,4.000000,4.000000,4.000000,4.000000,4.000000,4.000000,4.000000,4.000000,4.000000,4.000000,100.000000,,,,,,,,,,,,,,,,
1673442416.144054,116.000000,0.000000,4376.794922,4351.025879,4398.077148,4382.948730,4401.153809,4340.000000,4336.538574,4340.256348,4314.615234,4307.179688,4517.820313,4464.743652,4439.358887,4487.820313,0.000000,3.000000,80.000000,,,,0.000000,4.000000,4.000000,4.000000,4.000000,4.000000,4.000000,4.000000,4.000000,4.000000,4.000000,4.000000,4.000000,4.000000,4.000000,100.000000,,,,,,,,,,,,,,,,
1673442416.151867,117.000000,0.000000,4377.179688,4337.436035,4399.102539,4376.794922,4393.846191,4333.589844,4335.384766,4337.307617,4311.794922,4307.948730,4522.948730,4471.794922,4436.538574,4487.436035,0.000000,3.000000,80.000000,,,,0.000000,4.000000,4.000000,4.000000,4.000000,4.000000,4.000000,4.000000,4.000000,4.000000,4.000000,4.000000,4.000000,4.000000,4.000000,100.000000,,,,,,,,,,,,,,,,
1673442416.159679,118.000000,0.000000,4374.230957,4330.769043,4396.794922,4373.205078,4394.487305,4333.461426,4335.000000,4335.512695,4312.051270,4301.410156,4524.102539,4475.769043,4428.974121,4485.128418,0.000000,3.000000,80.000000,,,,0.000000,4.000000,4.000000,4.000000,4.000000,4.000000,4.000000,4.000000,4.000000,4.000000,4.000000,4.000000,4.000000,4.000000,4.000000,100.000000,,,,,,,,,,,,,,,,
1673442416.167492,119.000000,0.000000,4381.153809,4350.256348,4396.153809,4379.743652,4400.897461,4335.384766,4330.769043,4334.102539,4309.102539,4292.436035,4511.666504,4465.897461,4428.974121,4489.871582,0.000000,3.000000,80.000000,,,,0.000000,4.000000,4.000000,4.000000,4.000000,4.000000,4.000000,4.000000,4.000000,4.000000,4.000000,4.000000,4.000000,4.000000,4.000000,100.000000,,,,,,,,,,,,,,,,
1673442416.175304,120.000000,0.000000,4390.256348,4366.282227,4398.205078,4388.333496,4406.153809,4336.025879,4328.974121,4328.974121,4305.000000,4292.820313,4506.153809,4460.256348,4435.128418,4495.000000,0.000000,3.000000,80.000000,,,,0.000000,4.000000,4.000000,4.000000,4.000000,4.000000,4.000000,4.000000,4.000000,4.000000,4.000000,4.000000,4.000000,4.000000,4.000000,100.000000,,,,,,,,,,,,,,,,
1673442416.183117,121.000000,0.000000,4395.384766,4371.282227,4402.692383,4394.230957,4408.077148,4338.717773,4334.487305,4329.102539,4308.205078,4302.692383,4518.589844,4472.051270,4440.641113,4501.282227,0.000000,3.000000,80.000000,,,,0.000000,4.000000,4.000000,4.000000,4.000000,4.000000,4.000000,4.000000,4.000000,4.000000,4.000000,4.000000,4.000000,4.000000,4.000000,100.000000,,,,,,,,,,,,,,,,
1673442416.190929,122.000000,0.000000,4396.153809,4378.589844,4404.102539,4398.461426,4411.538574,4343.974121,4336.794922,4333.077148,4312.563965,4304.615234,4526.410156,4477.820313,4443.333496,4503.974121,0.000000,3.000000,80.000000,,,,0.000000,4.000000,4.000000,4.000000,4.000000,4.000000,4.000000,4.000000,4.000000,4.000000,4.000000,4.000000,4.000000,4.000000,4.000000,100.000000,,,,,,,,,,,,,,,,
1673442416.198742,123.000000,0.000000,4389.358887,4377.307617,4399.743652,4401.153809,4413.077148,4343.846191,4334.358887,4331.794922,4310.769043,4303.077148,4520.897461,4465.897461,4438.589844,4495.897461,0.000000,3.000000,80.000000,,,,0.000000,4.000000,4.000000,4.000000,4.000000,4.000000,4.000000,4.000000,4.000000,4.000000,4.000000,4.000000,4.000000,4.000000,4.000000,100.000000,,,,,,,,,,,,,,,,
1673442416.206554,124.000000,0.000000,4380.384766,4367.307617,4394.743652,4397.051270,4408.461426,4337.692383,4334.871582,4329.487305,4308.974121,4304.358887,4518.461426,4455.000000,4434.358887,4486.666504,0.000000,3.000000,80.000000,,,,0.000000,4.000000,4.000000,4.000000,4.000000,4.000000,4.000000,4.000000,4.000000,4.000000,4.000000,4.000000,4.000000,4.000000,4.000000,100.000000,,,,,,,,,,,,,,,,
1673442416.214367,125.000000,0.000000,4384.871582,4366.794922,4395.641113,4389.358887,4409.358887,4337.179688,4339.230957,4331.922852,4311.794922,4303.333496,4523.846191,4462.179688,4441.538574,4492.692383,0.000000,3.000000,80.000000,,,,0.000000,4.000000,4.000000,4.000000,4.000000,4.000000,4.000000,4.000000,4.000000,4.000000,4.000000,4.000000,4.000000,4.000000,4.000000,100.000000,,,,,,,,,,,,,,,,
1673442416.222179,126.000000,0.000000,4394.615234,4371.666504,4401.282227,4392.563965,4415.897461,4346.794922,4343.461426,4339.102539,4315.641113,4303.461426,4527.436035,4474.102539,4447.692383,4502.436035,0.000000,3.000000,80.000000,,,,0.000000,4.000000,4.000000,4.000000,4.000000,4.000000,4.000000,4.000000,4.000000,4.000000,4.000000,4.000000,4.000000,4.000000,4.000000,100.000000,,,,,,,,,,,,,,,,
1673442416.229992,127.000000,0.000000,4392.307617,4373.461426,4403.077148,4398.333496,4417.948730,4350.641113,4340.512695,4343.333496,4317.179688,4307.307617,4524.487305,4472.179688,4442.820313,4500.256348,0.000000,3.000000,80.000000,,,,0.000000,4.000000,4.000000,4.000000,4.000000,4.000000,4.000000,4.000000,4.000000,4.000000,4.000000,4.000000,4.000000,4.000000,4.000000,100.000000,,,,,,,,,,,,,,,,
1673442416.237804,0.000000,0.000000,4382.692383,4368.333496,4397.436035,4390.641113,4415.256348,4344.102539,4333.461426,4337.563965,4315.000000,4304.487305,4515.128418,4460.000000,4434.871582,4485.897461,0.000000,3.000000,80.000000,,,,0.000000,4.000000,4.000000,4.000000,4.000000,4.000000,4.000000,4.000000,4.000000,4.000000,4.000000,4.000000,4.000000,4.000000,4.000000,100.000000,,,,,,,,,,,,,,,,
1673442416.245617,1.000000,0.000000,4374.358887,4358.589844,4388.974121,4381.538574,4409.743652,4341.025879,4331.538574,4330.897461,4309.487305,4295.256348,4508.717773,4453.077148,4429.487305,4476.153809,0.000000,3.000000,80.000000,,,,0.000000,4.000000,4.000000,4.000000,4.000000,4.000000,4.000000,4.000000,4.000000,4.000000,4.000000,4.000000,4.000000,4.000000,4.000000,100.000000,,,,,,,,,,,,,,,,
1673442416.253429,2.000000,0.000000,4368.589844,4354.487305,4382.051270,4378.461426,4406.922852,4340.897461,4335.512695,4330.512695,4307.436035,4293.333496,4503.205078,4446.410156,4423.333496,4476.922852,0.000000,3.000000,80.000000,,,,0.000000,4.000000,4.000000,4.000000,4.000000,4.000000,4.000000,4.000000,4.000000,4.000000,4.000000,4.000000,4.000000,4.000000,4.000000,100.000000,1.000000,100.000000,4.000000,4.000000,4.000000,4.000000,4.000000,4.000000,4.000000,4.000000,4.000000,4.000000,4.000000,4.000000,4.000000,4.000000
1673442416.261242,3.000000,0.000000,4366.025879,4355.128418,4376.666504,4377.179688,4407.307617,4342.179688,4341.025879,4331.153809,4310.000000,4297.179688,4498.846191,4438.461426,4419.358887,4472.948730,0.000000,3.000000,80.000000,,,,0.000000,4.000000,4.000000,4.000000,4.000000,4.000000,4.000000,4.000000,4.000000,4.000000,4.000000,4.000000,4.000000,4.000000,4.000000,100.000000,,,,,,,,,,,,,,,,
1673442416.269054,4.000000,0.000000,4369.487305,4360.128418,4381.794922,4382.692383,4408.333496,4347.307617,4344.871582,4338.333496,4315.512695,4298.717773,4504.487305,4449.358887,4423.589844,4473.077148,0.000000,3.000000,80.000000,,,,0.000000,4.000000,4.000000,4.000000,4.000000,4.000000,4.000000,4.000000,4.000000,4.000000,4.000000,4.000000,4.000000,4.000000,4.000000,100.000000,,,,,,,,,,,,,,,,
1673442416.276867,5.000000,0.000000,4375.769043,4364.871582,4391.153809,4390.128418,4409.358887,4348.974121,4344.615234,4343.461426,4318.461426,4300.256348,4512.436035,4463.205078,4428.974121,4482.948730,0.000000,3.000000,80.000000,,,,0.000000,4.000000,4.000000,4.000000,4.000000,4.000000,4.000000,4.000000,4.000000,4.000000,4.000000,4.000000,4.000000,4.000000,4.000000,100.000000,,,,,,,,,,,,,,,,
1673442416.284679,6.000000,0.000000,4371.025879,4358.077148,4382.436035,4383.333496,4405.000000,4342.051270,4340.512695,4331.538574,4311.666504,4293.717773,4509.871582,4452.436035,4421.282227,4482.179688,0.000000,3.000000,80.000000,,,,0.000000,4.000000,4.000000,4.000000,4.000000,4.000000,4.000000,4.000000,4.000000,4.000000,4.000000,4.000000,4.000000,4.000000,4.000000,100.000000,,,,,,,,,,,,,,,,
1673442416.292492,7.000000,0.000000,4362.436035,4350.512695,4370.384766,4374.102539,4402.179688,4336.153809,4334.615234,4321.153809,4305.128418,4282.051270,4503.589844,4439.743652,4412.436035,4472.692383,0.000000,3.000000,80.000000,,,,0.000000,4.000000,4.000000,4.000000,4.000000,4.000000,4.000000,4.000000,4.000000,4.000000,4.000000,4.000000,4.000000,4.000000,4.000000,100.000000,,,,,,,,,,,,,,,,
1673442416.300304,8.000000,0.000000,4367.948730,4355.641113,4377.307617,4383.461426,4407.692383,4339.615234,4328.461426,4323.589844,4305.641113,4282.436035,4506.025879,4445.256348,4420.512695,4478.205078,0.000000,3.000000,80.000000,,,,0.000000,4.000000,4.000000,4.000000,4.000000,4.000000,4.000000,4.000000,4.000000,4.000000,4.000000,4.000000,4.000000,4.000000,4.000000,100.000000,,,,,,,,,,,,,,,,
1673442416.308117,9.000000,0.000000,4375.384766,4359.615234,4386.153809,4392.179688,4410.256348,4339.358887,4326.282227,4325.000000,4306.410156,4287.307617,4509.871582,4448.461426,4425.128418,4485.897461,0.000000,3.000000,80.000000,,,,0.000000,4.000000,4.000000,4.000000,4.000000,4.000000,4.000000,4.000000,4.000000,4.000000,4.000000,4.000000,4.000000,4.000000,4.000000,100.000000,,,,,,,,,,,,,,,,
1673442416.315929,10.000000,0.000000,4372.692383,4357.563965,4383.717773,4384.487305,4409.615234,4334.871582,4326.410156,4321.538574,4305.512695,4287.179688,4507.307617,4441.538574,4420.512695,4479.230957,0.000000,3.000000,80.000000,,,,0.000000,4.000000,4.000000,4.000000,4.000000,4.000000,4.000000,4.000000,4.000000,4.000000,4.000000,4.000000,4.000000,4.000000,4.000000,100.000000,,,,,,,,,,,,,,,,
1673442416.323742,11.000000,0.000000,4371.666504,4357.179688,4381.794922,4379.358887,4412.563965,4338.077148,4325.000000,4326.025879,4310.384766,4292.820313,4508.461426,4442.563965,4422.820313,4479.102539,0.000000,3.000000,80.000000,,,,0.000000,4.000000,4.000000,4.000000,4.000000,4.000000,4.000000,4.000000,4.000000,4.000000,4.000000,4.000000,4.000000,4.000000,4.000000,100.000000,,,,,,,,,,,,,,,,
1673442416.331554,12.000000,0.000000,4374.487305,4356.922852,4382.307617,4383.589844,4408.205078,4340.384766,4328.461426,4332.051270,4313.589844,4300.512695,4513.077148,4447.051270,4426.410156,4485.256348,0.000000,3.000000,80.000000,,,,0.000000,4.000000,4.000000,4.000000,4.000000,4.000000,4.000000,4.000000,4.000000,4.000000,4.000000,4.000000,4.000000,4.000000,4.000000,100.000000,,,,,,,,,,,,,,,,
1673442416.339367,13.000000,0.000000,4372.307617,4355.512695,4380.641113,4381.410156,4401.282227,4336.282227,4334.230957,4332.179688,4310.128418,4298.333496,4510.641113,4446.282227,4423.717773,4482.051270,0.000000,3.000000,80.000000,,,,0.000000,4.000000,4.000000,4.000000,4.000000,4.000000,4.000000,4.000000,4.000000,4.000000,4.000000,4.000000,4.000000,4.000000,4.000000,100.000000,,,,,,,,,,,,,,,,
1673442416.347179,14.000000,0.000000,4366.410156,4351.666504,4376.410156,4374.230957,4402.563965,4334.615234,4331.922852,4333.846191,4308.974121,4294.102539,4506.666504,4444.615234,4419.230957,4476.153809,0.000000,3.000000,80.000000,,,,0.000000,4.000000,4.000000,4.000000,4.000000,4.000000,4.000000,4.000000,4.000000,4.000000,4.000000,4.000000,4.000000,4.000000,4.000000,100.000000,,,,,,,,,,,,,,,,
1673442416.354992,15.000000,0.000000,4363.717773,4346.922852,4371.025879,4375.769043,4404.487305,4336.410156,4327.307617,4331.410156,4303.589844,4290.256348,4508.333496,4444.358887,4417.307617,4477.307617,0.000000,3.000000,80.000000,,,,0.000000,4.000000,4.000000,4.000000,4.000000,4.000000,4.000000,4.000000,4.000000,4.000000,4.000000,4.000000,4.000000,4.000000,4.000000,100.000000,,,,,,,,,,,,,,,,
