Timestamp,EEG.Counter,EEG.Interpolated,EEG.AF3,EEG.F7,EEG.F3,EEG.FC5,EEG.T7,EEG.P7,EEG.O1,EEG.O2,EEG.P8,EEG.T8,EEG.FC6,EEG.F4,EEG.F8,EEG.AF4,EEG.RawCq,EEG.Battery,EEG.BatteryPercent,MarkerIndex,MarkerType,MarkerValueInt,EEG.MarkerHardware,CQ.AF3,CQ.F7,CQ.F3,CQ.FC5,CQ.T7,CQ.P7,CQ.O1,CQ.O2,CQ.P8,CQ.T8,CQ.FC6,CQ.F4,CQ.F8,CQ.AF4,CQ.Overall,EQ.SampleRateQuality,EQ.OVERALL,EQ.AF3,EQ.F7,EQ.F3,EQ.FC5,EQ.T7,EQ.P7,EQ.O1,EQ.O2,EQ.P8,EQ.T8,EQ.FC6,EQ.F4,EQ.F8,EQ.AF4
1673442699.264975,65.000000,0.000000,4362.948730,4344.358887,4377.563965,4372.179688,4405.641113,4344.487305,4325.641113,4328.974121,4333.589844,4307.820313,4506.025879,4441.025879,4426.794922,4476.025879,0.000000,3.000000,80.000000,,,,0.000000,4.000000,4.000000,4.000000,4.000000,4.000000,4.000000,4.000000,4.000000,4.000000,4.000000,4.000000,4.000000,4.000000,4.000000,100.000000,,,,,,,,,,,,,,,,
1673442699.272787,66.000000,0.000000,4357.436035,4344.743652,4371.410156,4369.871582,4404.615234,4339.487305,4327.307617,4322.436035,4328.974121,4301.922852,4491.666504,4434.615234,4413.333496,4474.230957,0.000000,3.000000,80.000000,,,,0.000000,4.000000,4.000000,4.000000,4.000000,4.000000,4.000000,4.000000,4.000000,4.000000,4.000000,4.000000,4.000000,4.000000,4.000000,100.000000,,,,,,,,,,,,,,,,
1673442699.280600,67.000000,0.000000,4359.230957,4342.051270,4370.769043,4370.641113,4400.897461,4332.692383,4331.410156,4322.820313,4320.641113,4295.641113,4497.051270,4439.615234,4413.333496,4471.922852,0.000000,3.000000,80.000000,,,,0.000000,4.000000,4.000000,4.000000,4.000000,4.000000,4.000000,4.000000,4.000000,4.000000,4.000000,4.000000,4.000000,4.000000,4.000000,100.000000,1.000000,100.000000,4.000000,4.000000,4.000000,4.000000,4.000000,4.000000,4.000000,4.000000,4.000000,4.000000,4.000000,4.000000,4.000000,4.000000
1673442699.288412,68.000000,0.000000,4365.641113,4340.641113,4374.743652,4369.615234,4398.205078,4334.230957,4333.461426,4335.384766,4324.743652,4300.769043,4513.077148,4455.128418,4430.897461,4477.307617,0.000000,3.000000,80.000000,,,,0.000000,4.000000,4.000000,4.000000,4.000000,4.000000,4.000000,4.000000,4.000000,4.000000,4.000000,4.000000,4.000000,4.000000,4.000000,100.000000,,,,,,,,,,,,,,,,
1673442699.296225,69.000000,0.000000,4369.230957,4344.743652,4376.410156,4367.563965,4397.179688,4338.205078,4335.000000,4346.025879,4333.974121,4313.589844,4515.641113,4463.589844,4441.538574,4482.436035,0.000000,3.000000,80.000000,,,,0.000000,4.000000,4.000000,4.000000,4.000000,4.000000,4.000000,4.000000,4.000000,4.000000,4.000000,4.000000,4.000000,4.000000,4.000000,100.000000,,,,,,,,,,,,,,,,
1673442699.304037,70.000000,0.000000,4367.179688,4348.461426,4372.692383,4366.153809,4397.436035,4338.589844,4335.256348,4344.102539,4335.000000,4316.922852,4510.512695,4458.717773,4434.615234,4478.205078,0.000000,3.000000,80.000000,,,,0.000000,4.000000,4.000000,4.000000,4.000000,4.000000,4.000000,4.000000,4.000000,4.000000,4.000000,4.000000,4.000000,4.000000,4.000000,100.000000,,,,,,,,,,,,,,,,
1673442699.311850,71.000000,0.000000,4361.282227,4343.974121,4366.794922,4367.179688,4398.974121,4337.948730,4329.487305,4336.666504,4331.282227,4314.102539,4508.205078,4445.769043,4430.384766,4467.948730,0.000000,3.000000,80.000000,,,,0.000000,4.000000,4.000000,4.000000,4.000000,4.000000,4.000000,4.000000,4.000000,4.000000,4.000000,4.000000,4.000000,4.000000,4.000000,100.000000,,,,,,,,,,,,,,,,
1673442699.319662,72.000000,0.000000,4358.077148,4340.000000,4363.846191,4369.743652,4401.666504,4342.051270,4324.871582,4331.538574,4330.512695,4317.563965,4506.410156,4435.128418,4438.333496,4461.282227,0.000000,3.000000,80.000000,,,,0.000000,4.000000,4.000000,4.000000,4.000000,4.000000,4.000000,4.000000,4.000000,4.000000,4.000000,4.000000,4.000000,4.000000,4.000000,100.000000,,,,,,,,,,,,,,,,
1673442699.327475,73.000000,0.000000,4356.538574,4339.358887,4360.128418,4363.846191,4404.871582,4345.384766,4325.641113,4324.230957,4327.692383,4317.563965,4501.666504,4430.512695,4434.743652,4457.436035,0.000000,3.000000,80.000000,,,,0.000000,4.000000,4.000000,4.000000,4.000000,4.000000,4.000000,4.000000,4.000000,4.000000,4.000000,4.000000,4.000000,4.000000,4.000000,100.000000,,,,,,,,,,,,,,,,
1673442699.335287,74.000000,0.000000,4351.538574,4333.717773,4355.769043,4356.025879,4406.410156,4343.333496,4326.410156,4314.358887,4317.563965,4299.615234,4490.512695,4426.153809,4417.692383,4449.102539,0.000000,3.000000,80.000000,,,,0.000000,4.000000,4.000000,4.000000,4.000000,4.000000,4.000000,4.000000,4.000000,4.000000,4.000000,4.000000,4.000000,4.000000,4.000000,100.000000,,,,,,,,,,,,,,,,
1673442699.343100,75.000000,0.000000,4347.563965,4331.410156,4358.461426,4356.538574,4403.717773,4341.282227,4327.436035,4307.948730,4307.436035,4281.153809,4480.897461,4424.358887,4409.102539,4441.282227,0.000000,3.000000,80.000000,,,,0.000000,4.000000,4.000000,4.000000,4.000000,4.000000,4.000000,4.000000,4.000000,4.000000,4.000000,4.000000,4.000000,4.000000,4.000000,100.000000,,,,,,,,,,,,,,,,
1673442699.350912,76.000000,0.000000,4348.974121,4335.641113,4361.410156,4355.897461,4401.025879,4347.436035,4332.051270,4311.922852,4308.205078,4283.974121,4481.153809,4425.897461,4413.077148,4446.794922,0.000000,3.000000,80.000000,,,,0.000000,4.000000,4.000000,4.000000,4.000000,4.000000,4.000000,4.000000,4.000000,4.000000,4.000000,4.000000,4.000000,4.000000,4.000000,100.000000,,,,,,,,,,,,,,,,
1673442699.358725,77.000000,0.000000,4351.025879,4335.000000,4356.922852,4351.025879,4401.282227,4351.922852,4338.333496,4324.230957,4318.846191,4295.512695,4490.384766,4430.512695,4420.256348,4456.025879,0.000000,3.000000,80.000000,,,,0.000000,4.000000,4.000000,4.000000,4.000000,4.000000,4.000000,4.000000,4.000000,4.000000,4.000000,4.000000,4.000000,4.000000,4.000000,100.000000,,,,,,,,,,,,,,,,
1673442699.366537,78.000000,0.000000,4353.589844,4334.487305,4353.974121,4353.589844,4397.307617,4346.922852,4340.769043,4329.102539,4327.051270,4301.153809,4501.025879,4437.820313,4426.410156,4457.692383,0.000000,3.000000,80.000000,,,,0.000000,4.000000,4.000000,4.000000,4.000000,4.000000,4.000000,4.000000,4.000000,4.000000,4.000000,4.000000,4.000000,4.000000,4.000000,100.000000,,,,,,,,,,,,,,,,
1673442699.374350,79.000000,0.000000,4357.179688,4328.717773,4358.717773,4356.153809,4392.179688,4346.794922,4342.307617,4331.922852,4328.589844,4306.666504,4508.077148,4443.974121,4432.563965,4457.307617,0.000000,3.000000,80.000000,,,,0.000000,4.000000,4.000000,4.000000,4.000000,4.000000,4.000000,4.000000,4.000000,4.000000,4.000000,4.000000,4.000000,4.000000,4.000000,100.000000,,,,,,,,,,,,,,,,
1673442699.382162,80.000000,0.000000,4360.256348,4321.410156,4364.487305,4353.205078,4394.487305,4351.666504,4345.128418,4338.717773,4327.436035,4312.563965,4511.666504,4450.000000,4435.641113,4462.692383,0.000000,3.000000,80.000000,,,,0.000000,4.000000,4.000000,4.000000,4.000000,4.000000,4.000000,4.000000,4.000000,4.000000,4.000000,4.000000,4.000000,4.000000,4.000000,100.000000,,,,,,,,,,,,,,,,
1673442699.389975,81.000000,0.000000,4366.282227,4338.717773,4371.538574,4364.102539,4401.666504,4347.692383,4340.000000,4333.461426,4324.230957,4306.025879,4508.333496,4450.384766,4427.563965,4470.512695,0.000000,3.000000,80.000000,,,,0.000000,4.000000,4.000000,4.000000,4.000000,4.000000,4.000000,4.000000,4.000000,4.000000,4.000000,4.000000,4.000000,4.000000,4.000000,100.000000,,,,,,,,,,,,,,,,
1673442699.397787,82.000000,0.000000,4373.333496,4366.666504,4375.897461,4379.358887,4403.589844,4340.384766,4330.769043,4319.743652,4316.666504,4291.666504,4500.897461,4443.717773,4418.461426,4472.307617,0.000000,3.000000,80.000000,,,,0.000000,4.000000,4.000000,4.000000,4.000000,4.000000,4.000000,4.000000,4.000000,4.000000,4.000000,4.000000,4.000000,4.000000,4.000000,100.000000,,,,,,,,,,,,,,,,
1673442699.405600,83.000000,0.000000,4379.102539,4372.436035,4378.205078,4381.666504,4403.974121,4343.205078,4331.025879,4320.256348,4314.615234,4294.230957,4502.563965,4447.692383,4427.563965,4475.512695,0.000000,3.000000,80.000000,,,,0.000000,4.000000,4.000000,4.000000,4.000000,4.000000,4.000000,4.000000,4.000000,4.000000,4.000000,4.000000,4.000000,4.000000,4.000000,100.000000,,,,,,,,,,,,,,,,
1673442699.413412,84.000000,0.000000,4379.102539,4365.000000,4380.000000,4378.974121,4405.897461,4348.333496,4335.897461,4330.256348,4325.256348,4307.948730,4508.589844,4455.256348,4432.820313,4478.846191,0.000000,3.000000,80.000000,,,,0.000000,4.000000,4.000000,4.000000,4.000000,4.000000,4.000000,4.000000,4.000000,4.000000,4.000000,4.000000,4.000000,4.000000,4.000000,100.000000,,,,,,,,,,,,,,,,
1673442699.421225,85.000000,0.000000,4370.128418,4361.282227,4375.256348,4378.461426,4405.128418,4348.717773,4336.153809,4332.820313,4331.282227,4306.025879,4504.358887,4446.922852,4417.948730,4468.974121,0.000000,3.000000,80.000000,,,,0.000000,4.000000,4.000000,4.000000,4.000000,4.000000,4.000000,4.000000,4.000000,4.000000,4.000000,4.000000,4.000000,4.000000,4.000000,100.000000,,,,,,,,,,,,,,,,
1673442699.429037,86.000000,0.000000,4364.230957,4356.282227,4371.410156,4374.615234,4402.307617,4351.025879,4336.410156,4330.897461,4326.666504,4302.692383,4500.512695,4439.487305,4411.538574,4463.589844,0.000000,3.000000,80.000000,,,,0.000000,4.000000,4.000000,4.000000,4.000000,4.000000,4.000000,4.000000,4.000000,4.000000,4.000000,4.000000,4.000000,4.000000,4.000000,100.000000,,,,,,,,,,,,,,,,
1673442699.436850,87.000000,0.000000,4367.307617,4353.077148,4372.948730,4371.666504,4400.897461,4351.922852,4338.846191,4330.256348,4324.487305,4309.871582,4505.769043,4446.282227,4416.410156,4470.769043,0.000000,3.000000,80.000000,,,,0.000000,4.000000,4.000000,4.000000,4.000000,4.000000,4.000000,4.000000,4.000000,4.000000,4.000000,4.000000,4.000000,4.000000,4.000000,100.000000,,,,,,,,,,,,,,,,
1673442699.444662,88.000000,0.000000,4367.179688,4353.333496,4371.282227,4373.589844,4401.538574,4351.538574,4343.717773,4329.487305,4325.512695,4309.487305,4501.282227,4447.692383,4414.615234,4468.589844,0.000000,3.000000,80.000000,,,,0.000000,4.000000,4.000000,4.000000,4.000000,4.000000,4.000000,4.000000,4.000000,4.000000,4.000000,4.000000,4.000000,4.000000,4.000000,100.000000,,,,,,,,,,,,,,,,
1673442699.452475,89.000000,0.000000,4360.128418,4352.051270,4365.641113,4370.256348,4402.051270,4352.692383,4348.205078,4332.948730,4322.692383,4305.000000,4491.410156,4442.820313,4411.666504,4458.589844,0.000000,3.000000,80.000000,,,,0.000000,4.000000,4.000000,4.000000,4.000000,4.000000,4.000000,4.000000,4.000000,4.000000,4.000000,4.000000,4.000000,4.000000,4.000000,100.000000,,,,,,,,,,,,,,,,
1673442699.460287,90.000000,0.000000,4357.436035,4349.615234,4363.461426,4363.589844,4401.153809,4347.820313,4343.077148,4337.948730,4322.436035,4305.512695,4492.563965,4443.205078,4408.461426,4460.769043,0.000000,3.000000,80.000000,,,,0.000000,4.000000,4.000000,4.000000,4.000000,4.000000,4.000000,4.000000,4.000000,4.000000,4.000000,4.000000,4.000000,4.000000,4.000000,100.000000,,,,,,,,,,,,,,,,
1673442699.468100,91.000000,0.000000,4358.205078,4346.282227,4360.897461,4362.820313,4399.358887,4340.128418,4333.461426,4335.000000,4322.436035,4298.717773,4494.358887,4437.820313,4399.871582,4461.410156,0.000000,3.000000,80.000000,,,,0.000000,4.000000,4.000000,4.000000,4.000000,4.000000,4.000000,4.000000,4.000000,4.000000,4.000000,4.000000,4.000000,4.000000,4.000000,100.000000,,,,,,,,,,,,,,,,
1673442699.475912,92.000000,0.000000,4351.153809,4344.743652,4357.051270,4365.641113,4395.897461,4339.743652,4330.641113,4331.025879,4315.256348,4285.641113,4487.563965,4432.179688,4393.205078,4453.717773,0.000000,3.000000,80.000000,,,,0.000000,4.000000,4.000000,4.000000,4.000000,4.000000,4.000000,4.000000,4.000000,4.000000,4.000000,4.000000,4.000000,4.000000,4.000000,100.000000,,,,,,,,,,,,,,,,
1673442699.483725,93.000000,0.000000,4349.615234,4341.282227,4359.358887,4361.538574,4393.846191,4339.743652,4330.384766,4333.205078,4310.384766,4286.538574,4487.563965,4437.948730,4395.256348,4454.871582,0.000000,3.000000,80.000000,,,,0.000000,4.000000,4.000000,4.000000,4.000000,4.000000,4.000000,4.000000,4.000000,4.000000,4.000000,4.000000,4.000000,4.000000,4.000000,100.000000,,,,,,,,,,,,,,,,
1673442699.491537,94.000000,0.000000,4357.051270,4338.333496,4364.230957,4362.436035,4392.563965,4336.666504,4333.717773,4334.102539,4314.230957,4296.794922,4497.307617,4444.230957,4402.179688,4460.384766,0.000000,3.000000,80.000000,,,,0.000000,4.000000,4.000000,4.000000,4.000000,4.000000,4.000000,4.000000,4.000000,4.000000,4.000000,4.000000,4.000000,4.000000,4.000000,100.000000,,,,,,,,,,,,,,,,
1673442699.499350,95.000000,0.000000,4360.384766,4343.589844,4368.717773,4372.563965,4393.205078,4339.487305,4341.282227,4337.948730,4321.282227,4304.230957,4502.051270,4448.333496,4409.102539,4465.512695,0.000000,3.000000,80.000000,,,,0.000000,4.000000,4.000000,4.000000,4.000000,4.000000,4.000000,4.000000,4.000000,4.000000,4.000000,4.000000,4.000000,4.000000,4.000000,100.000000,,,,,,,,,,,,,,,,
1673442699.507162,96.000000,0.000000,4364.230957,4355.897461,4374.358887,4378.461426,4400.769043,4343.717773,4344.871582,4349.871582,4328.077148,4313.589844,4511.153809,4456.794922,4418.589844,4475.256348,0.000000,3.000000,80.000000,,,,0.000000,4.000000,4.000000,4.000000,4.000000,4.000000,4.000000,4.000000,4.000000,4.000000,4.000000,4.000000,4.000000,4.000000,4.000000,100.000000,,,,,,,,,,,,,,,,
1673442699.514975,97.000000,0.000000,4373.205078,4362.948730,4378.333496,4379.102539,4404.743652,4343.589844,4347.307617,4354.230957,4334.102539,4320.897461,4522.051270,4462.179688,4426.538574,4481.410156,0.000000,3.000000,80.000000,,,,0.000000,4.000000,4.000000,4.000000,4.000000,4.000000,4.000000,4.000000,4.000000,4.000000,4.000000,4.000000,4.000000,4.000000,4.000000,100.000000,,,,,,,,,,,,,,,,
1673442699.522787,98.000000,0.000000,4375.769043,4356.922852,4376.922852,4376.025879,4398.077148,4342.820313,4343.205078,4343.589844,4330.641113,4318.205078,4516.538574,4460.256348,4423.846191,4479.615234,0.000000,3.000000,80.000000,,,,0.000000,4.000000,4.000000,4.000000,4.000000,4.000000,4.000000,4.000000,4.000000,4.000000,4.000000,4.000000,4.000000,4.000000,4.000000,100.000000,,,,,,,,,,,,,,,,
1673442699.530600,99.000000,0.000000,4368.846191,4348.333496,4370.384766,4371.025879,4391.794922,4340.000000,4331.794922,4335.000000,4320.384766,4308.589844,4505.128418,4458.717773,4416.282227,4475.512695,0.000000,3.000000,80.000000,,,,0.000000,4.000000,4.000000,4.000000,4.000000,4.000000,4.000000,4.000000,4.000000,4.000000,4.000000,4.000000,4.000000,4.000000,4.000000,100.000000,,,,,,,,,,,,,,,,
1673442699.538412,100.000000,0.000000,4364.743652,4347.436035,4368.205078,4367.692383,4392.563965,4337.179688,4325.769043,4336.538574,4317.820313,4299.871582,4504.743652,4453.717773,4411.794922,4473.717773,0.000000,3.000000,80.000000,,,,0.000000,4.000000,4.000000,4.000000,4.000000,4.000000,4.000000,4.000000,4.000000,4.000000,4.000000,4.000000,4.000000,4.000000,4.000000,100.000000,,,,,,,,,,,,,,,,
1673442699.546225,101.000000,0.000000,4368.846191,4353.974121,4371.794922,4370.641113,4400.000000,4339.230957,4326.794922,4334.230957,4317.436035,4294.615234,4505.897461,4443.974121,4409.487305,4473.846191,0.000000,3.000000,80.000000,,,,0.000000,4.000000,4.000000,4.000000,4.000000,4.000000,4.000000,4.000000,4.000000,4.000000,4.000000,4.000000,4.000000,4.000000,4.000000,100.000000,,,,,,,,,,,,,,,,
1673442699.554037,102.000000,0.000000,4373.717773,4357.563965,4371.538574,4375.000000,4405.897461,4340.384766,4328.333496,4328.846191,4312.692383,4289.102539,4500.000000,4442.948730,4407.436035,4474.358887,0.000000,3.000000,80.000000,,,,0.000000,4.000000,4.000000,4.000000,4.000000,4.000000,4.000000,4.000000,4.000000,4.000000,4.000000,4.000000,4.000000,4.000000,4.000000,100.000000,,,,,,,,,,,,,,,,
1673442699.561850,103.000000,0.000000,4379.615234,4360.769043,4373.717773,4377.692383,4405.769043,4341.538574,4332.692383,4333.461426,4308.589844,4290.897461,4503.461426,4453.333496,4412.563965,4477.179688,0.000000,3.000000,80.000000,,,,0.000000,4.000000,4.000000,4.000000,4.000000,4.000000,4.000000,4.000000,4.000000,4.000000,4.000000,4.000000,4.000000,4.000000,4.000000,100.000000,,,,,,,,,,,,,,,,
1673442699.569662,104.000000,0.000000,4382.051270,4360.769043,4382.051270,4377.436035,4398.333496,4340.128418,4336.666504,4336.922852,4308.717773,4295.384766,4509.230957,4460.641113,4415.641113,4480.000000,0.000000,3.000000,80.000000,,,,0.000000,4.000000,4.000000,4.000000,4.000000,4.000000,4.000000,4.000000,4.000000,4.000000,4.000000,4.000000,4.000000,4.000000,4.000000,100.000000,,,,,,,,,,,,,,,,
1673442699.577475,105.000000,0.000000,4375.384766,4350.128418,4380.641113,4370.512695,4393.717773,4329.743652,4331.410156,4331.794922,4310.512695,4291.282227,4500.000000,4457.436035,4406.410156,4474.871582,0.000000,3.000000,80.000000,,,,0.000000,4.000000,4.000000,4.000000,4.000000,4.000000,4.000000,4.000000,4.000000,4.000000,4.000000,4.000000,4.000000,4.000000,4.000000,100.000000,,,,,,,,,,,,,,,,
1673442699.585287,106.000000,0.000000,4372.948730,4348.205078,4375.256348,4369.743652,4398.846191,4326.153809,4331.666504,4333.717773,4316.282227,4295.384766,4495.256348,4457.692383,4405.641113,4475.000000,0.000000,3.000000,80.000000,,,,0.000000,4.000000,4.000000,4.000000,4.000000,4.000000,4.000000,4.000000,4.000000,4.000000,4.000000,4.000000,4.000000,4.000000,4.000000,100.000000,,,,,,,,,,,,,,,,
1673442699.593100,107.000000,0.000000,4378.717773,4356.410156,4376.922852,4373.461426,4400.256348,4334.230957,4341.282227,4344.743652,4324.230957,4308.205078,4504.743652,4460.897461,4416.666504,4484.487305,0.000000,3.000000,80.000000,,,,0.000000,4.000000,4.000000,4.000000,4.000000,4.000000,4.000000,4.000000,4.000000,4.000000,4.000000,4.000000,4.000000,4.000000,4.000000,100.000000,,,,,,,,,,,,,,,,
1673442699.600912,108.000000,0.000000,4375.384766,4352.820313,4374.358887,4370.641113,4396.025879,4336.025879,4344.615234,4346.410156,4324.230957,4305.000000,4510.897461,4457.563965,4416.025879,4482.307617,0.000000,3.000000,80.000000,,,,0.000000,4.000000,4.000000,4.000000,4.000000,4.000000,4.000000,4.000000,4.000000,4.000000,4.000000,4.000000,4.000000,4.000000,4.000000,100.000000,,,,,,,,,,,,,,,,
1673442699.608725,109.000000,0.000000,4367.179688,4345.769043,4369.871582,4367.307617,4397.307617,4334.615234,4337.948730,4338.333496,4318.846191,4294.487305,4507.436035,4454.487305,4408.717773,4473.333496,0.000000,3.000000,80.000000,,,,0.000000,4.000000,4.000000,4.000000,4.000000,4.000000,4.000000,4.000000,4.000000,4.000000,4.000000,4.000000,4.000000,4.000000,4.000000,100.000000,,,,,,,,,,,,,,,,
1673442699.616537,110.000000,0.000000,4370.128418,4348.461426,4375.384766,4369.230957,4402.179688,4340.256348,4334.230957,4333.589844,4314.230957,4289.743652,4498.589844,4452.692383,4409.230957,4474.358887,0.000000,3.000000,80.000000,,,,0.000000,4.000000,4.000000,4.000000,4.000000,4.000000,4.000000,4.000000,4.000000,4.000000,4.000000,4.000000,4.000000,4.000000,4.000000,100.000000,,,,,,,,,,,,,,,,
1673442699.624350,111.000000,0.000000,4374.487305,4349.230957,4377.820313,4371.538574,4401.025879,4341.666504,4340.512695,4328.974121,4311.538574,4285.000000,4493.077148,4447.820313,4408.077148,4477.948730,0.000000,3.000000,80.000000,,,,0.000000,4.000000,4.000000,4.000000,4.000000,4.000000,4.000000,4.000000,4.000000,4.000000,4.000000,4.000000,4.000000,4.000000,4.000000,100.000000,,,,,,,,,,,,,,,,
1673442699.632162,112.000000,0.000000,4371.282227,4346.025879,4372.436035,4370.256348,4398.589844,4338.205078,4345.512695,4327.692383,4315.128418,4290.897461,4500.128418,4453.461426,4407.563965,4479.102539,0.000000,3.000000,80.000000,,,,0.000000,4.000000,4.000000,4.000000,4.000000,4.000000,4.000000,4.000000,4.000000,4.000000,4.000000,4.000000,4.000000,4.000000,4.000000,100.000000,,,,,,,,,,,,,,,,
1673442699.639975,113.000000,0.000000,4370.641113,4351.922852,4371.153809,4370.384766,4398.589844,4340.512695,4343.846191,4333.717773,4324.871582,4306.922852,4510.897461,4462.436035,4416.410156,4480.769043,0.000000,3.000000,80.000000,,,,0.000000,4.000000,4.000000,4.000000,4.000000,4.000000,4.000000,4.000000,4.000000,4.000000,4.000000,4.000000,4.000000,4.000000,4.000000,100.000000,,,,,,,,,,,,,,,,
1673442699.647787,114.000000,0.000000,4368.461426,4355.384766,4369.871582,4369.615234,4403.461426,4346.538574,4343.205078,4334.743652,4325.512695,4308.333496,4509.230957,4453.974121,4418.077148,4479.615234,0.000000,3.000000,80.000000,,,,0.000000,4.000000,4.000000,4.000000,4.000000,4.000000,4.000000,4.000000,4.000000,4.000000,4.000000,4.000000,4.000000,4.000000,4.000000,100.000000,,,,,,,,,,,,,,,,
1673442699.655600,115.000000,0.000000,4361.922852,4348.846191,4362.436035,4364.487305,4410.000000,4351.794922,4342.307617,4330.128418,4315.769043,4297.820313,4500.769043,4441.538574,4410.128418,4473.589844,0.000000,3.000000,80.000000,,,,0.000000,4.000000,4.000000,4.000000,4.000000,4.000000,4.000000,4.000000,4.000000,4.000000,4.000000,4.000000,4.000000,4.000000,4.000000,100.000000,,,,,,,,,,,,,,,,
1673442699.663412,116.000000,0.000000,4359.615234,4345.897461,4356.410156,4361.282227,4405.897461,4354.230957,4336.410156,4324.358887,4309.358887,4294.102539,4492.307617,4437.948730,4406.922852,4468.205078,0.000000,3.000000,80.000000,,,,0.000000,4.000000,4.000000,4.000000,4.000000,4.000000,4.000000,4.000000,4.000000,4.000000,4.000000,4.000000,4.000000,4.000000,4.000000,100.000000,,,,,,,,,,,,,,,,
1673442699.671225,117.000000,0.000000,4363.205078,4350.641113,4360.384766,4361.922852,4402.179688,4352.820313,4332.179688,4323.717773,4308.205078,4296.922852,4491.025879,4441.282227,4407.692383,4468.461426,0.000000,3.000000,80.000000,,,,0.000000,4.000000,4.000000,4.000000,4.000000,4.000000,4.000000,4.000000,4.000000,4.000000,4.000000,4.000000,4.000000,4.000000,4.000000,100.000000,,,,,,,,,,,,,,,,
1673442699.679037,118.000000,0.000000,4368.589844,4355.384766,4370.769043,4367.179688,4407.820313,4348.077148,4335.128418,4331.922852,4314.743652,4299.487305,4501.794922,4453.589844,4411.282227,4476.538574,0.000000,3.000000,80.000000,,,,0.000000,4.000000,4.000000,4.000000,4.000000,4.000000,4.000000,4.000000,4.000000,4.000000,4.000000,4.000000,4.000000,4.000000,4.000000,100.000000,,,,,,,,,,,,,,,,
1673442699.686850,119.000000,0.000000,4374.871582,4357.820313,4377.179688,4373.205078,4406.282227,4339.487305,4335.000000,4337.948730,4320.897461,4301.538574,4508.077148,4462.307617,4415.384766,4482.307617,0.000000,3.000000,80.000000,,,,0.000000,4.000000,4.000000,4.000000,4.000000,4.000000,4.000000,4.000000,4.000000,4.000000,4.000000,4.000000,4.000000,4.000000,4.000000,100.000000,,,,,,,,,,,,,,,,
1673442699.694662,120.000000,0.000000,4375.384766,4356.025879,4376.922852,4369.615234,4395.128418,4330.384766,4329.358887,4334.615234,4320.641113,4305.128418,4504.615234,4459.358887,4412.563965,4477.820313,0.000000,3.000000,80.000000,,,,0.000000,4.000000,4.000000,4.000000,4.000000,4.000000,4.000000,4.000000,4.000000,4.000000,4.000000,4.000000,4.000000,4.000000,4.000000,100.000000,,,,,,,,,,,,,,,,
1673442699.702475,121.000000,0.000000,4368.333496,4348.974121,4371.538574,4361.153809,4395.000000,4325.641113,4329.358887,4331.282227,4322.820313,4306.538574,4504.102539,4455.512695,4411.410156,4474.871582,0.000000,3.000000,80.000000,,,,0.000000,4.000000,4.000000,4.000000,4.000000,4.000000,4.000000,4.000000,4.000000,4.000000,4.000000,4.000000,4.000000,4.000000,4.000000,100.000000,,,,,,,,,,,,,,,,
1673442699.710287,122.000000,0.000000,4365.384766,4343.846191,4367.051270,4360.256348,4398.846191,4327.051270,4334.358887,4333.333496,4325.897461,4304.871582,4506.025879,4457.051270,4413.077148,4477.692383,0.000000,3.000000,80.000000,,,,0.000000,4.000000,4.000000,4.000000,4.000000,4.000000,4.000000,4.000000,4.000000,4.000000,4.000000,4.000000,4.000000,4.000000,4.000000,100.000000,,,,,,,,,,,,,,,,
1673442699.718100,123.000000,0.000000,4370.128418,4346.153809,4370.897461,4365.000000,4395.512695,4332.692383,4337.307617,4338.589844,4324.487305,4303.974121,4507.051270,4459.487305,4412.436035,4480.769043,0.000000,3.000000,80.000000,,,,0.000000,4.000000,4.000000,4.000000,4.000000,4.000000,4.000000,4.000000,4.000000,4.000000,4.000000,4.000000,4.000000,4.000000,4.000000,100.000000,,,,,,,,,,,,,,,,
1673442699.725912,124.000000,0.000000,4376.410156,4355.384766,4379.102539,4370.512695,4399.358887,4336.025879,4341.025879,4341.153809,4322.820313,4306.666504,4508.846191,4461.922852,4413.589844,4484.358887,0.000000,3.000000,80.000000,,,,0.000000,4.000000,4.000000,4.000000,4.000000,4.000000,4.000000,4.000000,4.000000,4.000000,4.000000,4.000000,4.000000,4.000000,4.000000,100.000000,,,,,,,,,,,,,,,,
1673442699.733725,125.000000,0.000000,4374.743652,4356.922852,4378.589844,4370.512695,4403.846191,4334.743652,4343.461426,4341.922852,4326.025879,4309.102539,4508.333496,4460.641113,4412.948730,4483.205078,0.000000,3.000000,80.000000,,,,0.000000,4.000000,4.000000,4.000000,4.000000,4.000000,4.000000,4.000000,4.000000,4.000000,4.000000,4.000000,4.000000,4.000000,4.000000,100.000000,,,,,,,,,,,,,,,,
1673442699.741537,126.000000,0.000000,4368.205078,4348.461426,4373.333496,4364.358887,4397.820313,4334.102539,4341.153809,4344.615234,4331.666504,4306.666504,4508.205078,4459.487305,4411.282227,4479.102539,0.000000,3.000000,80.000000,,,,0.000000,4.000000,4.000000,4.000000,4.000000,4.000000,4.000000,4.000000,4.000000,4.000000,4.000000,4.000000,4.000000,4.000000,4.000000,100.000000,,,,,,,,,,,,,,,,
1673442699.749350,127.000000,0.000000,4365.512695,4349.230957,4372.820313,4364.615234,4397.692383,4338.974121,4341.282227,4345.769043,4329.615234,4301.410156,4507.307617,4458.461426,4413.077148,4478.974121,0.000000,3.000000,80.000000,,,,0.000000,4.000000,4.000000,4.000000,4.000000,4.000000,4.000000,4.000000,4.000000,4.000000,4.000000,4.000000,4.000000,4.000000,4.000000,100.000000,,,,,,,,,,,,,,,,
1673442699.757162,0.000000,0.000000,4364.358887,4352.307617,4372.692383,4369.743652,4405.512695,4342.948730,4341.666504,4338.717773,4320.512695,4297.692383,4498.205078,4448.974121,4409.487305,4474.102539,0.000000,3.000000,80.000000,,,,0.000000,4.000000,4.000000,4.000000,4.000000,4.000000,4.000000,4.000000,4.000000,4.000000,4.000000,4.000000,4.000000,4.000000,4.000000,100.000000,,,,,,,,,,,,,,,,
1673442699.764975,1.000000,0.000000,4363.717773,4350.128418,4367.051270,4366.153809,4405.512695,4341.794922,4334.358887,4328.846191,4315.128418,4297.563965,4490.641113,4441.666504,4403.974121,4468.077148,0.000000,3.000000,80.000000,,,,0.000000,4.000000,4.000000,4.000000,4.000000,4.000000,4.000000,4.000000,4.000000,4.000000,4.000000,4.000000,4.000000,4.000000,4.000000,100.000000,,,,,,,,,,,,,,,,
1673442699.772787,2.000000,0.000000,4361.538574,4350.128418,4362.051270,4361.666504,4405.128418,4341.794922,4331.922852,4329.102539,4318.205078,4297.692383,4493.717773,4440.256348,4408.205078,4469.102539,0.000000,3.000000,80.000000,,,,0.000000,4.000000,4.000000,4.000000,4.000000,4.000000,4.000000,4.000000,4.000000,4.000000,4.000000,4.000000,4.000000,4.000000,4.000000,100.000000,,,,,,,,,,,,,,,,
1673442699.780600,3.000000,0.000000,4362.179688,4350.641113,4365.384766,4363.589844,4409.487305,4344.102539,4334.615234,4329.487305,4318.077148,4296.410156,4494.230957,4434.487305,4406.922852,4468.461426,0.000000,3.000000,80.000000,,,,0.000000,4.000000,4.000000,4.000000,4.000000,4.000000,4.000000,4.000000,4.000000,4.000000,4.000000,4.000000,4.000000,4.000000,4.000000,100.000000,1.000000,75.000000,4.000000,4.000000,4.000000,4.000000,1.000000,4.000000,4.000000,4.000000,4.000000,4.000000,4.000000,4.000000,4.000000,4.000000
1673442699.788412,4.000000,0.000000,4363.205078,4348.333496,4366.025879,4360.512695,4408.077148,4342.563965,4328.205078,4318.717773,4313.333496,4295.641113,4488.974121,4432.436035,4398.974121,4466.282227,0.000000,3.000000,80.000000,,,,0.000000,4.000000,4.000000,4.000000,4.000000,4.000000,4.000000,4.000000,4.000000,4.000000,4.000000,4.000000,4.000000,4.000000,4.000000,100.000000,,,,,,,,,,,,,,,,
1673442699.796225,5.000000,0.000000,4365.769043,4350.384766,4363.846191,4360.769043,4405.384766,4339.102539,4321.410156,4315.512695,4314.871582,4298.205078,4495.000000,4439.487305,4403.589844,4470.769043,0.000000,3.000000,80.000000,,,,0.000000,4.000000,4.000000,4.000000,4.000000,4.000000,4.000000,4.000000,4.000000,4.000000,4.000000,4.000000,4.000000,4.000000,4.000000,100.000000,,,,,,,,,,,,,,,,
1673442699.804037,6.000000,0.000000,4372.948730,4355.641113,4371.410156,4368.333496,4409.743652,4341.794922,4329.743652,4325.512695,4320.641113,4300.769043,4506.922852,4446.282227,4413.846191,4478.589844,0.000000,3.000000,80.000000,,,,0.000000,4.000000,4.000000,4.000000,4.000000,4.000000,4.000000,4.000000,4.000000,4.000000,4.000000,4.000000,4.000000,4.000000,4.000000,100.000000,,,,,,,,,,,,,,,,
1673442699.811850,7.000000,0.000000,4371.922852,4355.000000,4380.000000,4368.205078,4411.025879,4346.282227,4341.922852,4334.487305,4324.358887,4300.128418,4509.358887,4453.974121,4414.358887,4480.384766,0.000000,3.000000,80.000000,,,,0.000000,4.000000,4.000000,4.000000,4.000000,4.000000,4.000000,4.000000,4.000000,4.000000,4.000000,4.000000,4.000000,4.000000,4.000000,100.000000,,,,,,,,,,,,,,,,
1673442699.819662,8.000000,0.000000,4365.641113,4352.820313,4377.051270,4367.948730,4405.897461,4349.871582,4343.589844,4343.205078,4325.641113,4305.256348,4508.974121,4461.538574,4412.563965,4481.282227,0.000000,3.000000,80.000000,,,,0.000000,4.000000,4.000000,4.000000,4.000000,4.000000,4.000000,4.000000,4.000000,4.000000,4.000000,4.000000,4.000000,4.000000,4.000000,100.000000,,,,,,,,,,,,,,,,
1673442699.827475,9.000000,0.000000,4366.666504,4354.230957,4374.230957,4375.384766,4406.153809,4350.641113,4340.769043,4352.179688,4329.358887,4314.102539,4509.102539,4459.871582,4419.230957,4487.307617,0.000000,3.000000,80.000000,,,,0.000000,4.000000,4.000000,4.000000,4.000000,4.000000,4.000000,4.000000,4.000000,4.000000,4.000000,4.000000,4.000000,4.000000,4.000000,100.000000,,,,,,,,,,,,,,,,
1673442699.835287,10.000000,0.000000,4370.128418,4357.436035,4376.666504,4376.538574,4410.128418,4346.922852,4343.077148,4353.589844,4336.282227,4314.102539,4508.461426,4456.922852,4423.717773,4486.794922,0.000000,3.000000,80.000000,,,,0.000000,4.000000,4.000000,4.000000,4.000000,4.000000,4.000000,4.000000,4.000000,4.000000,4.000000,4.000000,4.000000,4.000000,4.000000,100.000000,,,,,,,,,,,,,,,,
1673442699.843100,11.000000,0.000000,4366.410156,4355.256348,4373.205078,4370.256348,4410.641113,4343.205078,4344.615234,4347.051270,4336.025879,4311.922852,4507.820313,4459.230957,4420.512695,4480.897461,0.000000,3.000000,80.000000,,,,0.000000,4.000000,4.000000,4.000000,4.000000,4.000000,4.000000,4.000000,4.000000,4.000000,4.000000,4.000000,4.000000,4.000000,4.000000,100.000000,,,,,,,,,,,,,,,,
1673442699.850912,12.000000,0.000000,4363.077148,4350.897461,4370.000000,4369.230957,4406.410156,4340.000000,4337.948730,4342.692383,4331.794922,4313.205078,4507.051270,4456.410156,4419.615234,4480.769043,0.000000,3.000000,80.000000,,,,0.000000,4.000000,4.000000,4.000000,4.000000,4.000000,4.000000,4.000000,4.000000,4.000000,4.000000,4.000000,4.000000,4.000000,4.000000,100.000000,,,,,,,,,,,,,,,,
1673442699.858725,13.000000,0.000000,4368.205078,4358.077148,4378.589844,4374.487305,4407.051270,4339.615234,4335.512695,4341.538574,4331.153809,4313.461426,4506.794922,4448.846191,4422.948730,4483.846191,0.000000,3.000000,80.000000,,,,0.000000,4.000000,4.000000,4.000000,4.000000,4.000000,4.000000,4.000000,4.000000,4.000000,4.000000,4.000000,4.000000,4.000000,4.000000,100.000000,,,,,,,,,,,,,,,,
1673442699.866537,14.000000,0.000000,4375.000000,4367.563965,4384.871582,4381.025879,4414.487305,4342.436035,4339.743652,4332.563965,4326.538574,4311.538574,4511.153809,4444.743652,4427.436035,4483.333496,0.000000,3.000000,80.000000,,,,0.000000,4.000000,4.000000,4.000000,4.000000,4.000000,4.000000,4.000000,4.000000,4.000000,4.000000,4.000000,4.000000,4.000000,4.000000,100.000000,,,,,,,,,,,,,,,,
1673442699.874350,15.000000,0.000000,4375.000000,4366.794922,4377.307617,4380.641113,4417.051270,4343.974121,4336.410156,4318.077148,4315.128418,4304.615234,4511.410156,4443.846191,4428.205078,4482.179688,0.000000,3.000000,80.000000,,,,0.000000,4.000000,4.000000,4.000000,4.000000,4.000000,4.000000,4.000000,4.000000,4.000000,4.000000,4.000000,4.000000,4.000000,4.000000,100.000000,,,,,,,,,,,,,,,,
1673442699.882162,16.000000,0.000000,4374.102539,4361.794922,4374.743652,4375.512695,4413.333496,4340.641113,4325.512695,4309.615234,4304.743652,4297.051270,4497.820313,4442.051270,4420.641113,4480.256348,0.000000,3.000000,80.000000,,,,0.000000,4.000000,4.000000,4.000000,4.000000,4.000000,4.000000,4.000000,4.000000,4.000000,4.000000,4.000000,4.000000,4.000000,4.000000,100.000000,,,,,,,,,,,,,,,,
1673442699.889975,17.000000,0.000000,4373.205078,4357.563965,4378.846191,4375.641113,4408.974121,4338.333496,4326.025879,4308.589844,4299.615234,4290.897461,4489.743652,4439.871582,4409.487305,4473.333496,0.000000,3.000000,80.000000,,,,0.000000,4.000000,4.000000,4.000000,4.000000,4.000000,4.000000,4.000000,4.000000,4.000000,4.000000,4.000000,4.000000,4.000000,4.000000,100.000000,,,,,,,,,,,,,,,,
1673442699.897787,18.000000,0.000000,4367.692383,4353.589844,4377.820313,4378.077148,4408.205078,4341.153809,4335.641113,4317.307617,4305.384766,4289.615234,4499.102539,4441.666504,4409.487305,4473.846191,0.000000,3.000000,80.000000,,,,0.000000,4.000000,4.000000,4.000000,4.000000,4.000000,4.000000,4.000000,4.000000,4.000000,4.000000,4.000000,4.000000,4.000000,4.000000,100.000000,,,,,,,,,,,,,,,,
1673442699.905600,19.000000,0.000000,4363.974121,4351.666504,4373.846191,4373.717773,4408.589844,4340.256348,4331.666504,4329.487305,4319.487305,4299.230957,4509.358887,4446.025879,4417.179688,4479.102539,0.000000,3.000000,80.000000,,,,0.000000,4.000000,4.000000,4.000000,4.000000,4.000000,4.000000,4.000000,4.000000,4.000000,4.000000,4.000000,4.000000,4.000000,4.000000,100.000000,,,,,,,,,,,,,,,,
1673442699.913412,20.000000,0.000000,4361.410156,4346.922852,4367.692383,4363.974121,4402.692383,4333.846191,4324.743652,4335.128418,4326.410156,4305.000000,4505.512695,4443.205078,4414.102539,4473.846191,0.000000,3.000000,80.000000,,,,0.000000,4.000000,4.000000,4.000000,4.000000,4.000000,4.000000,4.000000,4.000000,4.000000,4.000000,4.000000,4.000000,4.000000,4.000000,100.000000,,,,,,,,,,,,,,,,
1673442699.921225,21.000000,0.000000,4360.512695,4345.512695,4366.666504,4363.974121,4399.871582,4333.717773,4330.769043,4338.717773,4325.769043,4302.436035,4500.000000,4440.512695,4410.897461,4470.000000,0.000000,3.000000,80.000000,,,,0.000000,4.000000,4.000000,4.000000,4.000000,4.000000,4.000000,4.000000,4.000000,4.000000,4.000000,4.000000,4.000000,4.000000,4.000000,100.000000,,,,,,,,,,,,,,,,
1673442699.929037,22.000000,0.000000,4369.102539,4356.025879,4375.769043,4375.000000,4408.589844,4342.051270,4333.717773,4344.230957,4329.743652,4309.487305,4510.641113,4452.563965,4422.307617,4481.666504,0.000000,3.000000,80.000000,,,,0.000000,4.000000,4.000000,4.000000,4.000000,4.000000,4.000000,4.000000,4.000000,4.000000,4.000000,4.000000,4.000000,4.000000,4.000000,100.000000,,,,,,,,,,,,,,,,
1673442699.936850,23.000000,0.000000,4375.769043,4360.512695,4378.717773,4378.461426,4408.717773,4343.333496,4329.487305,4343.461426,4330.769043,4317.051270,4520.384766,4462.563965,4431.794922,4490.128418,0.000000,3.000000,80.000000,,,,0.000000,4.000000,4.000000,4.000000,4.000000,4.000000,4.000000,4.000000,4.000000,4.000000,4.000000,4.000000,4.000000,4.000000,4.000000,100.000000,,,,,,,,,,,,,,,,
1673442699.944662,24.000000,0.000000,4369.871582,4352.307617,4370.897461,4369.102539,4400.897461,4336.025879,4331.282227,4333.461426,4318.717773,4305.897461,4509.743652,4450.512695,4424.102539,4480.641113,0.000000,3.000000,80.000000,,,,0.000000,4.000000,4.000000,4.000000,4.000000,4.000000,4.000000,4.000000,4.000000,4.000000,4.000000,4.000000,4.000000,4.000000,4.000000,100.000000,,,,,,,,,,,,,,,,
1673442699.952475,25.000000,0.000000,4367.307617,4352.307617,4372.436035,4368.589844,4402.563965,4337.307617,4336.666504,4328.461426,4308.461426,4294.487305,4498.461426,4437.820313,4416.410156,4474.102539,0.000000,3.000000,80.000000,,,,0.000000,4.000000,4.000000,4.000000,4.000000,4.000000,4.000000,4.000000,4.000000,4.000000,4.000000,4.000000,4.000000,4.000000,4.000000,100.000000,,,,,,,,,,,,,,,,
1673442699.960287,26.000000,0.000000,4375.256348,4359.487305,4379.743652,4379.871582,4403.461426,4344.487305,4336.025879,4335.256348,4315.384766,4298.846191,4505.256348,4449.743652,4418.846191,4482.563965,0.000000,3.000000,80.000000,,,,0.000000,4.000000,4.000000,4.000000,4.000000,4.000000,4.000000,4.000000,4.000000,4.000000,4.000000,4.000000,4.000000,4.000000,4.000000,100.000000,,,,,,,,,,,,,,,,
1673442699.968100,27.000000,0.000000,4375.128418,4355.128418,4376.410156,4378.333496,4399.102539,4343.589844,4332.820313,4341.666504,4323.077148,4305.384766,4511.410156,4461.666504,4420.128418,4489.871582,0.000000,3.000000,80.000000,,,,0.000000,4.000000,4.000000,4.000000,4.000000,4.000000,4.000000,4.000000,4.000000,4.000000,4.000000,4.000000,4.000000,4.000000,4.000000,100.000000,,,,,,,,,,,,,,,,
1673442699.975912,28.000000,0.000000,4367.179688,4349.487305,4370.000000,4364.487305,4398.717773,4340.000000,4329.358887,4335.769043,4316.666504,4302.307617,4504.871582,4451.794922,4416.666504,4486.153809,0.000000,3.000000,80.000000,,,,0.000000,4.000000,4.000000,4.000000,4.000000,4.000000,4.000000,4.000000,4.000000,4.000000,4.000000,4.000000,4.000000,4.000000,4.000000,100.000000,,,,,,,,,,,,,,,,
1673442699.983725,29.000000,0.000000,4364.487305,4353.589844,4369.487305,4365.512695,4404.615234,4342.307617,4330.128418,4325.897461,4312.692383,4299.615234,4501.666504,4441.025879,4413.846191,4476.538574,0.000000,3.000000,80.000000,,,,0.000000,4.000000,4.000000,4.000000,4.000000,4.000000,4.000000,4.000000,4.000000,4.000000,4.000000,4.000000,4.000000,4.000000,4.000000,100.000000,,,,,,,,,,,,,,,,
1673442699.991537,30.000000,0.000000,4363.589844,4352.436035,4370.384766,4376.025879,4406.153809,4345.512695,4337.179688,4328.846191,4318.077148,4304.358887,4503.717773,4442.307617,4412.948730,4471.794922,0.000000,3.000000,80.000000,,,,0.000000,4.000000,4.000000,4.000000,4.000000,4.000000,4.000000,4.000000,4.000000,4.000000,4.000000,4.000000,4.000000,4.000000,4.000000,100.000000,,,,,,,,,,,,,,,,
1673442699.999350,31.000000,0.000000,4362.563965,4347.436035,4366.794922,4372.692383,4400.384766,4344.102539,4336.025879,4332.436035,4316.153809,4305.256348,4507.948730,4444.743652,4413.846191,4476.153809,0.000000,3.000000,80.000000,,,,0.000000,4.000000,4.000000,4.000000,4.000000,4.000000,4.000000,4.000000,4.000000,4.000000,4.000000,4.000000,4.000000,4.000000,4.000000,100.000000,,,,,,,,,,,,,,,,
1673442700.007162,32.000000,0.000000,4363.333496,4350.769043,4365.769043,4365.512695,4396.282227,4337.820313,4328.205078,4329.230957,4308.974121,4299.871582,4507.436035,4443.333496,4415.256348,4476.922852,0.000000,3.000000,80.000000,,,,0.000000,4.000000,4.000000,4.000000,4.000000,4.000000,4.000000,4.000000,4.000000,4.000000,4.000000,4.000000,4.000000,4.000000,4.000000,100.000000,,,,,,,,,,,,,,,,
1673442700.014975,33.000000,0.000000,4363.846191,4353.461426,4371.282227,4368.846191,4399.230957,4333.077148,4326.153809,4330.897461,4308.205078,4297.563965,4498.461426,4443.461426,4412.563965,4473.846191,0.000000,3.000000,80.000000,,,,0.000000,4.000000,4.000000,4.000000,4.000000,4.000000,4.000000,4.000000,4.000000,4.000000,4.000000,4.000000,4.000000,4.000000,4.000000,100.000000,,,,,,,,,,,,,,,,
1673442700.022787,34.000000,0.000000,4362.179688,4346.794922,4374.230957,4369.615234,4401.025879,4335.512695,4327.179688,4332.307617,4308.846191,4298.589844,4493.077148,4442.692383,4409.871582,4477.436035,0.000000,3.000000,80.000000,,,,0.000000,4.000000,4.000000,4.000000,4.000000,4.000000,4.000000,4.000000,4.000000,4.000000,4.000000,4.000000,4.000000,4.000000,4.000000,100.000000,,,,,,,,,,,,,,,,
1673442700.030600,35.000000,0.000000,4359.871582,4346.153809,4369.487305,4364.743652,4395.512695,4336.538574,4324.358887,4329.487305,4307.179688,4296.922852,4492.307617,4440.641113,4408.333496,4475.897461,0.000000,3.000000,80.000000,,,,0.000000,4.000000,4.000000,4.000000,4.000000,4.000000,4.000000,4.000000,4.000000,4.000000,4.000000,4.000000,4.000000,4.000000,4.000000,100.000000,,,,,,,,,,,,,,,,
1673442700.038412,36.000000,0.000000,4365.641113,4356.794922,4371.794922,4368.461426,4399.102539,4335.641113,4324.871582,4330.256348,4311.538574,4299.615234,4493.717773,4440.769043,4410.128418,4472.820313,0.000000,3.000000,80.000000,,,,0.000000,4.000000,4.000000,4.000000,4.000000,4.000000,4.000000,4.000000,4.000000,4.000000,4.000000,4.000000,4.000000,4.000000,4.000000,100.000000,,,,,,,,,,,,,,,,
1673442700.046225,37.000000,0.000000,4370.256348,4349.871582,4379.871582,4369.102539,4402.820313,4339.871582,4329.743652,4335.128418,4318.589844,4308.205078,4501.153809,4444.358887,4419.743652,4481.153809,0.000000,3.000000,80.000000,,,,0.000000,4.000000,4.000000,4.000000,4.000000,4.000000,4.000000,4.000000,4.000000,4.000000,4.000000,4.000000,4.000000,4.000000,4.000000,100.000000,,,,,,,,,,,,,,,,
1673442700.054037,38.000000,0.000000,4366.153809,4337.563965,4377.563965,4362.179688,4396.794922,4339.871582,4333.077148,4337.051270,4320.128418,4308.589844,4508.205078,4448.717773,4426.794922,4486.922852,0.000000,3.000000,80.000000,,,,0.000000,4.000000,4.000000,4.000000,4.000000,4.000000,4.000000,4.000000,4.000000,4.000000,4.000000,4.000000,4.000000,4.000000,4.000000,100.000000,,,,,,,,,,,,,,,,
1673442700.061850,39.000000,0.000000,4367.820313,4354.615234,4373.717773,4371.025879,4397.948730,4333.974121,4332.692383,4333.333496,4315.000000,4302.179688,4505.512695,4447.051270,4423.846191,4479.230957,0.000000,3.000000,80.000000,,,,0.000000,4.000000,4.000000,4.000000,4.000000,4.000000,4.000000,4.000000,4.000000,4.000000,4.000000,4.000000,4.000000,4.000000,4.000000,100.000000,,,,,,,,,,,,,,,,
1673442700.069662,40.000000,0.000000,4373.333496,4376.538574,4377.563965,4382.948730,4400.128418,4332.051270,4330.256348,4328.589844,4309.871582,4296.410156,4495.000000,4440.641113,4416.666504,4474.615234,0.000000,3.000000,80.000000,,,,0.000000,4.000000,4.000000,4.000000,4.000000,4.000000,4.000000,4.000000,4.000000,4.000000,4.000000,4.000000,4.000000,4.000000,4.000000,100.000000,,,,,,,,,,,,,,,,
1673442700.077475,41.000000,0.000000,4369.102539,4377.436035,4378.333496,4378.717773,4397.692383,4336.794922,4331.282227,4331.410156,4315.256348,4296.282227,4490.897461,4441.538574,4413.077148,4477.179688,0.000000,3.000000,80.000000,,,,0.000000,4.000000,4.000000,4.000000,4.000000,4.000000,4.000000,4.000000,4.000000,4.000000,4.000000,4.000000,4.000000,4.000000,4.000000,100.000000,,,,,,,,,,,,,,,,
1673442700.085287,42.000000,0.000000,4362.051270,4376.538574,4370.000000,4374.615234,4398.077148,4342.307617,4335.128418,4332.692383,4321.794922,4296.922852,4490.000000,4442.692383,4410.641113,4470.000000,0.000000,3.000000,80.000000,,,,0.000000,4.000000,4.000000,4.000000,4.000000,4.000000,4.000000,4.000000,4.000000,4.000000,4.000000,4.000000,4.000000,4.000000,4.000000,100.000000,,,,,,,,,,,,,,,,
1673442700.093100,43.000000,0.000000,4359.102539,4374.743652,4363.205078,4375.128418,4398.589844,4340.641113,4336.282227,4330.897461,4318.717773,4293.589844,4487.307617,4433.974121,4403.205078,4458.205078,0.000000,3.000000,80.000000,,,,0.000000,4.000000,4.000000,4.000000,4.000000,4.000000,4.000000,4.000000,4.000000,4.000000,4.000000,4.000000,4.000000,4.000000,4.000000,100.000000,,,,,,,,,,,,,,,,
1673442700.100912,44.000000,0.000000,4359.230957,4367.051270,4366.282227,4375.000000,4399.358887,4341.025879,4338.077148,4339.102539,4318.333496,4292.051270,4485.897461,4433.974121,4396.922852,4458.077148,0.000000,3.000000,80.000000,,,,0.000000,4.000000,4.000000,4.000000,4.000000,4.000000,4.000000,4.000000,4.000000,4.000000,4.000000,4.000000,4.000000,4.000000,4.000000,100.000000,,,,,,,,,,,,,,,,
1673442700.108725,45.000000,0.000000,4362.692383,4371.666504,4371.282227,4378.077148,4406.538574,4348.717773,4342.563965,4343.717773,4322.948730,4296.922852,4490.769043,4442.948730,4402.307617,4462.179688,0.000000,3.000000,80.000000,,,,0.000000,4.000000,4.000000,4.000000,4.000000,4.000000,4.000000,4.000000,4.000000,4.000000,4.000000,4.000000,4.000000,4.000000,4.000000,100.000000,,,,,,,,,,,,,,,,
1673442700.116537,46.000000,0.000000,4360.641113,4370.641113,4370.000000,4374.743652,4407.179688,4348.077148,4342.051270,4336.282227,4318.589844,4294.871582,4493.461426,4442.820313,4409.615234,4457.563965,0.000000,3.000000,80.000000,,,,0.000000,4.000000,4.000000,4.000000,4.000000,4.000000,4.000000,4.000000,4.000000,4.000000,4.000000,4.000000,4.000000,4.000000,4.000000,100.000000,,,,,,,,,,,,,,,,
1673442700.124350,47.000000,0.000000,4354.487305,4357.051270,4365.256348,4363.717773,4397.179688,4336.666504,4334.743652,4332.051270,4307.820313,4283.717773,4484.102539,4438.077148,4402.436035,4451.538574,0.000000,3.000000,80.000000,,,,0.000000,4.000000,4.000000,4.000000,4.000000,4.000000,4.000000,4.000000,4.000000,4.000000,4.000000,4.000000,4.000000,4.000000,4.000000,100.000000,,,,,,,,,,,,,,,,
1673442700.132162,48.000000,0.000000,4353.333496,4352.563965,4364.871582,4362.179688,4396.666504,4338.333496,4335.512695,4333.974121,4308.461426,4281.666504,4478.205078,4436.666504,4394.230957,4449.358887,0.000000,3.000000,80.000000,,,,0.000000,4.000000,4.000000,4.000000,4.000000,4.000000,4.000000,4.000000,4.000000,4.000000,4.000000,4.000000,4.000000,4.000000,4.000000,100.000000,,,,,,,,,,,,,,,,
1673442700.139975,49.000000,0.000000,4350.128418,4350.256348,4362.436035,4366.666504,4402.436035,4349.102539,4341.153809,4334.358887,4316.922852,4290.256348,4483.461426,4430.769043,4396.922852,4446.025879,0.000000,3.000000,80.000000,,,,0.000000,4.000000,4.000000,4.000000,4.000000,4.000000,4.000000,4.000000,4.000000,4.000000,4.000000,4.000000,4.000000,4.000000,4.000000,100.000000,,,,,,,,,,,,,,,,
1673442700.147787,50.000000,0.000000,4346.153809,4347.307617,4357.436035,4367.436035,4405.641113,4351.794922,4342.948730,4334.743652,4322.948730,4296.794922,4492.948730,4426.922852,4402.307617,4446.666504,0.000000,3.000000,80.000000,,,,0.000000,4.000000,4.000000,4.000000,4.000000,4.000000,4.000000,4.000000,4.000000,4.000000,4.000000,4.000000,4.000000,4.000000,4.000000,100.000000,,,,,,,,,,,,,,,,
1673442700.155600,51.000000,0.000000,4347.436035,4348.717773,4355.512695,4365.897461,4405.512695,4349.487305,4342.692383,4334.102539,4319.615234,4294.230957,4492.820313,4430.769043,4400.384766,4448.974121,0.000000,3.000000,80.000000,,,,0.000000,4.000000,4.000000,4.000000,4.000000,4.000000,4.000000,4.000000,4.000000,4.000000,4.000000,4.000000,4.000000,4.000000,4.000000,100.000000,,,,,,,,,,,,,,,,
1673442700.163412,52.000000,0.000000,4349.102539,4349.487305,4356.794922,4363.077148,4403.461426,4346.025879,4338.974121,4327.307617,4310.641113,4287.948730,4485.256348,4428.205078,4395.641113,4445.256348,0.000000,3.000000,80.000000,,,,0.000000,4.000000,4.000000,4.000000,4.000000,4.000000,4.000000,4.000000,4.000000,4.000000,4.000000,4.000000,4.000000,4.000000,4.000000,100.000000,,,,,,,,,,,,,,,,
1673442700.171225,53.000000,0.000000,4346.025879,4345.256348,4359.871582,4363.205078,4402.179688,4341.282227,4333.077148,4327.051270,4308.333496,4286.794922,4484.487305,4426.794922,4393.846191,4442.179688,0.000000,3.000000,80.000000,,,,0.000000,4.000000,4.000000,4.000000,4.000000,4.000000,4.000000,4.000000,4.000000,4.000000,4.000000,4.000000,4.000000,4.000000,4.000000,100.000000,,,,,,,,,,,,,,,,
1673442700.179037,54.000000,0.000000,4347.948730,4345.897461,4363.717773,4368.846191,4402.563965,4336.025879,4332.948730,4334.487305,4312.948730,4291.410156,4492.948730,4436.922852,4397.307617,4447.179688,0.000000,3.000000,80.000000,,,,0.000000,4.000000,4.000000,4.000000,4.000000,4.000000,4.000000,4.000000,4.000000,4.000000,4.000000,4.000000,4.000000,4.000000,4.000000,100.000000,,,,,,,,,,,,,,,,
1673442700.186850,55.000000,0.000000,4355.000000,4351.153809,4365.128418,4373.205078,4405.128418,4335.641113,4335.512695,4336.538574,4316.025879,4294.487305,4496.794922,4443.846191,4401.538574,4453.589844,0.000000,3.000000,80.000000,,,,0.000000,4.000000,4.000000,4.000000,4.000000,4.000000,4.000000,4.000000,4.000000,4.000000,4.000000,4.000000,4.000000,4.000000,4.000000,100.000000,,,,,,,,,,,,,,,,
1673442700.194662,56.000000,0.000000,4356.282227,4352.948730,4364.615234,4375.512695,4407.179688,4340.512695,4335.384766,4338.077148,4317.179688,4292.820313,4489.102539,4442.307617,4398.205078,4455.897461,0.000000,3.000000,80.000000,,,,0.000000,4.000000,4.000000,4.000000,4.000000,4.000000,4.000000,4.000000,4.000000,4.000000,4.000000,4.000000,4.000000,4.000000,4.000000,100.000000,,,,,,,,,,,,,,,,
1673442700.202475,57.000000,0.000000,4356.282227,4356.025879,4368.461426,4377.692383,4405.897461,4343.077148,4338.974121,4343.077148,4321.794922,4295.897461,4494.487305,4443.461426,4400.128418,4458.461426,0.000000,3.000000,80.000000,,,,0.000000,4.000000,4.000000,4.000000,4.000000,4.000000,4.000000,4.000000,4.000000,4.000000,4.000000,4.000000,4.000000,4.000000,4.000000,100.000000,,,,,,,,,,,,,,,,
1673442700.210287,58.000000,0.000000,4358.333496,4356.922852,4372.307617,4375.897461,4402.820313,4341.153809,4344.102539,4347.948730,4324.487305,4300.000000,4507.436035,4447.563965,4408.461426,4460.769043,0.000000,3.000000,80.000000,,,,0.000000,4.000000,4.000000,4.000000,4.000000,4.000000,4.000000,4.000000,4.000000,4.000000,4.000000,4.000000,4.000000,4.000000,4.000000,100.000000,,,,,,,,,,,,,,,,
1673442700.218100,59.000000,0.000000,4357.179688,4354.102539,4370.769043,4371.025879,4402.820313,4342.179688,4342.948730,4348.333496,4319.615234,4298.589844,4501.666504,4445.128418,4406.666504,4459.487305,0.000000,3.000000,80.000000,,,,0.000000,4.000000,4.000000,4.000000,4.000000,4.000000,4.000000,4.000000,4.000000,4.000000,4.000000,4.000000,4.000000,4.000000,4.000000,100.000000,,,,,,,,,,,,,,,,
1673442700.225912,60.000000,0.000000,4355.256348,4351.666504,4367.179688,4372.179688,4403.974121,4345.769043,4340.384766,4341.538574,4313.589844,4295.897461,4489.615234,4440.256348,4400.128418,4457.436035,0.000000,3.000000,80.000000,,,,0.000000,4.000000,4.000000,4.000000,4.000000,4.000000,4.000000,4.000000,4.000000,4.000000,4.000000,4.000000,4.000000,4.000000,4.000000,100.000000,,,,,,,,,,,,,,,,
1673442700.233725,61.000000,0.000000,4351.922852,4349.358887,4362.692383,4372.820313,4400.512695,4341.282227,4338.205078,4336.666504,4316.282227,4292.563965,4489.871582,4437.307617,4399.230957,4450.641113,0.000000,3.000000,80.000000,,,,0.000000,4.000000,4.000000,4.000000,4.000000,4.000000,4.000000,4.000000,4.000000,4.000000,4.000000,4.000000,4.000000,4.000000,4.000000,100.000000,,,,,,,,,,,,,,,,
1673442700.241537,62.000000,0.000000,4347.948730,4347.051270,4361.282227,4367.692383,4399.487305,4334.487305,4334.230957,4340.769043,4322.436035,4293.205078,4496.153809,4441.666504,4403.077148,4446.922852,0.000000,3.000000,80.000000,,,,0.000000,4.000000,4.000000,4.000000,4.000000,4.000000,4.000000,4.000000,4.000000,4.000000,4.000000,4.000000,4.000000,4.000000,4.000000,100.000000,,,,,,,,,,,,,,,,
1673442700.249350,63.000000,0.000000,4346.282227,4344.615234,4360.897461,4362.948730,4397.820313,4335.128418,4333.846191,4346.153809,4326.025879,4300.128418,4496.282227,4445.641113,4404.743652,4451.282227,0.000000,3.000000,80.000000,,,,0.000000,4.000000,4.000000,4.000000,4.000000,4.000000,4.000000,4.000000,4.000000,4.000000,4.000000,4.000000,4.000000,4.000000,4.000000,100.000000,,,,,,,,,,,,,,,,
1673442700.257162,64.000000,0.000000,4341.538574,4341.410156,4356.794922,4361.410156,4393.974121,4341.282227,4336.410156,4344.615234,4326.666504,4299.358887,4492.051270,4435.641113,4400.384766,4448.205078,0.000000,3.000000,80.000000,,,,0.000000,4.000000,4.000000,4.000000,4.000000,4.000000,4.000000,4.000000,4.000000,4.000000,4.000000,4.000000,4.000000,4.000000,4.000000,100.000000,,,,,,,,,,,,,,,,
1673442700.264975,65.000000,0.000000,4332.692383,4334.230957,4347.307617,4357.436035,4391.922852,4339.743652,4332.563965,4338.077148,4318.974121,4288.589844,4488.077148,4427.436035,4391.666504,4436.922852,0.000000,3.000000,80.000000,,,,0.000000,4.000000,4.000000,4.000000,4.000000,4.000000,4.000000,4.000000,4.000000,4.000000,4.000000,4.000000,4.000000,4.000000,4.000000,100.000000,,,,,,,,,,,,,,,,
1673442700.272787,66.000000,0.000000,4333.461426,4332.307617,4347.692383,4356.794922,4393.333496,4332.692383,4326.794922,4337.307617,4313.589844,4287.820313,4491.922852,4436.922852,4391.153809,4439.102539,0.000000,3.000000,80.000000,,,,0.000000,4.000000,4.000000,4.000000,4.000000,4.000000,4.000000,4.000000,4.000000,4.000000,4.000000,4.000000,4.000000,4.000000,4.000000,100.000000,,,,,,,,,,,,,,,,
1673442700.280600,67.000000,0.000000,4345.128418,4340.897461,4361.410156,4365.000000,4397.563965,4337.179688,4332.820313,4341.153809,4316.410156,4297.436035,4498.461426,4448.205078,4400.641113,4451.538574,0.000000,3.000000,80.000000,,,,0.000000,4.000000,4.000000,4.000000,4.000000,4.000000,4.000000,4.000000,4.000000,4.000000,4.000000,4.000000,4.000000,4.000000,4.000000,100.000000,1.000000,100.000000,4.000000,4.000000,4.000000,4.000000,4.000000,4.000000,4.000000,4.000000,4.000000,4.000000,4.000000,4.000000,4.000000,4.000000
1673442700.288412,68.000000,0.000000,4347.179688,4343.077148,4365.000000,4369.743652,4397.948730,4340.128418,4336.794922,4340.512695,4317.307617,4296.922852,4496.282227,4444.358887,4400.256348,4449.615234,0.000000,3.000000,80.000000,,,,0.000000,4.000000,4.000000,4.000000,4.000000,4.000000,4.000000,4.000000,4.000000,4.000000,4.000000,4.000000,4.000000,4.000000,4.000000,100.000000,,,,,,,,,,,,,,,,
1673442700.296225,69.000000,0.000000,4342.179688,4337.563965,4358.974121,4367.820313,4393.461426,4330.128418,4331.025879,4333.846191,4312.820313,4286.282227,4490.256348,4440.384766,4387.436035,4442.051270,0.000000,3.000000,80.000000,,,,0.000000,4.000000,4.000000,4.000000,4.000000,4.000000,4.000000,4.000000,4.000000,4.000000,4.000000,4.000000,4.000000,4.000000,4.000000,100.000000,,,,,,,,,,,,,,,,
1673442700.304037,70.000000,0.000000,4343.589844,4337.563965,4357.948730,4367.948730,4392.563965,4326.922852,4327.563965,4328.333496,4307.563965,4281.410156,4489.871582,4442.179688,4382.948730,4445.000000,0.000000,3.000000,80.000000,,,,0.000000,4.000000,4.000000,4.000000,4.000000,4.000000,4.000000,4.000000,4.000000,4.000000,4.000000,4.000000,4.000000,4.000000,4.000000,100.000000,,,,,,,,,,,,,,,,
1673442700.311850,71.000000,0.000000,4343.333496,4335.256348,4358.205078,4365.384766,4392.307617,4334.743652,4330.641113,4327.563965,4306.025879,4280.256348,4492.436035,4436.538574,4388.589844,4445.769043,0.000000,3.000000,80.000000,,,,0.000000,4.000000,4.000000,4.000000,4.000000,4.000000,4.000000,4.000000,4.000000,4.000000,4.000000,4.000000,4.000000,4.000000,4.000000,100.000000,,,,,,,,,,,,,,,,
1673442700.319662,72.000000,0.000000,4342.179688,4332.563965,4358.461426,4360.641113,4388.333496,4336.410156,4332.563965,4327.820313,4307.179688,4277.948730,4491.153809,4434.102539,4392.051270,4443.077148,0.000000,3.000000,80.000000,,,,0.000000,4.000000,4.000000,4.000000,4.000000,4.000000,4.000000,4.000000,4.000000,4.000000,4.000000,4.000000,4.000000,4.000000,4.000000,100.000000,,,,,,,,,,,,,,,,
1673442700.327475,73.000000,0.000000,4348.205078,4340.384766,4363.717773,4365.512695,4388.333496,4331.922852,4331.025879,4325.128418,4309.487305,4283.589844,4489.230957,4439.743652,4395.128418,4447.692383,0.000000,3.000000,80.000000,,,,0.000000,4.000000,4.000000,4.000000,4.000000,4.000000,4.000000,4.000000,4.000000,4.000000,4.000000,4.000000,4.000000,4.000000,4.000000,100.000000,,,,,,,,,,,,,,,,
1673442700.335287,74.000000,0.000000,4356.410156,4346.025879,4367.179688,4374.102539,4394.743652,4332.948730,4328.205078,4323.461426,4311.282227,4290.512695,4490.384766,4443.077148,4398.846191,4458.333496,0.000000,3.000000,80.000000,,,,0.000000,4.000000,4.000000,4.000000,4.000000,4.000000,4.000000,4.000000,4.000000,4.000000,4.000000,4.000000,4.000000,4.000000,4.000000,100.000000,,,,,,,,,,,,,,,,
1673442700.343100,75.000000,0.000000,4361.025879,4345.128418,4368.974121,4375.384766,4397.948730,4341.153809,4326.794922,4327.307617,4314.487305,4291.794922,4496.538574,4447.307617,4400.000000,4462.948730,0.000000,3.000000,80.000000,,,,0.000000,4.000000,4.000000,4.000000,4.000000,4.000000,4.000000,4.000000,4.000000,4.000000,4.000000,4.000000,4.000000,4.000000,4.000000,100.000000,,,,,,,,,,,,,,,,
1673442700.350912,76.000000,0.000000,4362.307617,4349.230957,4373.717773,4377.948730,4399.102539,4343.589844,4328.333496,4333.461426,4317.820313,4293.974121,4501.153809,4452.820313,4400.256348,4462.948730,0.000000,3.000000,80.000000,,,,0.000000,4.000000,4.000000,4.000000,4.000000,4.000000,4.000000,4.000000,4.000000,4.000000,4.000000,4.000000,4.000000,4.000000,4.000000,100.000000,,,,,,,,,,,,,,,,
1673442700.358725,77.000000,0.000000,4360.897461,4350.256348,4371.282227,4377.563965,4401.922852,4337.436035,4328.205078,4334.615234,4315.769043,4292.436035,4496.025879,4448.205078,4399.358887,4462.307617,0.000000,3.000000,80.000000,,,,0.000000,4.000000,4.000000,4.000000,4.000000,4.000000,4.000000,4.000000,4.000000,4.000000,4.000000,4.000000,4.000000,4.000000,4.000000,100.000000,,,,,,,,,,,,,,,,
1673442700.366537,78.000000,0.000000,4360.512695,4345.128418,4369.615234,4370.128418,4400.000000,4337.436035,4327.051270,4331.538574,4312.051270,4287.179688,4490.256348,4442.948730,4396.282227,4460.384766,0.000000,3.000000,80.000000,,,,0.000000,4.000000,4.000000,4.000000,4.000000,4.000000,4.000000,4.000000,4.000000,4.000000,4.000000,4.000000,4.000000,4.000000,4.000000,100.000000,,,,,,,,,,,,,,,,
1673442700.374350,79.000000,0.000000,4362.948730,4344.102539,4375.256348,4368.333496,4396.922852,4340.256348,4327.436035,4330.256348,4311.025879,4289.615234,4493.846191,4449.102539,4396.025879,4461.666504,0.000000,3.000000,80.000000,,,,0.000000,4.000000,4.000000,4.000000,4.000000,4.000000,4.000000,4.000000,4.000000,4.000000,4.000000,4.000000,4.000000,4.000000,4.000000,100.000000,,,,,,,,,,,,,,,,
1673442700.382162,80.000000,0.000000,4361.153809,4346.410156,4373.333496,4373.333496,4398.974121,4337.307617,4325.769043,4330.000000,4309.743652,4293.717773,4496.794922,4448.974121,4398.205078,4463.333496,0.000000,3.000000,80.000000,,,,0.000000,4.000000,4.000000,4.000000,4.000000,4.000000,4.000000,4.000000,4.000000,4.000000,4.000000,4.000000,4.000000,4.000000,4.000000,100.000000,,,,,,,,,,,,,,,,
1673442700.389975,81.000000,0.000000,4354.487305,4347.051270,4364.487305,4370.641113,4399.871582,4336.153809,4325.897461,4330.384766,4309.487305,4293.077148,4492.563965,4443.846191,4399.615234,4461.025879,0.000000,3.000000,80.000000,,,,0.000000,4.000000,4.000000,4.000000,4.000000,4.000000,4.000000,4.000000,4.000000,4.000000,4.000000,4.000000,4.000000,4.000000,4.000000,100.000000,,,,,,,,,,,,,,,,
1673442700.397787,82.000000,0.000000,4351.410156,4346.282227,4359.871582,4365.897461,4393.717773,4333.461426,4324.615234,4331.666504,4313.461426,4295.256348,4492.436035,4442.179688,4397.820313,4454.358887,0.000000,3.000000,80.000000,,,,0.000000,4.000000,4.000000,4.000000,4.000000,4.000000,4.000000,4.000000,4.000000,4.000000,4.000000,4.000000,4.000000,4.000000,4.000000,100.000000,,,,,,,,,,,,,,,,
1673442700.405600,83.000000,0.000000,4349.743652,4344.102539,4357.948730,4366.025879,4390.128418,4330.128418,4323.589844,4328.205078,4309.230957,4294.102539,4490.769043,4433.717773,4394.102539,4447.948730,0.000000,3.000000,80.000000,,,,0.000000,4.000000,4.000000,4.000000,4.000000,4.000000,4.000000,4.000000,4.000000,4.000000,4.000000,4.000000,4.000000,4.000000,4.000000,100.000000,,,,,,,,,,,,,,,,
1673442700.413412,84.000000,0.000000,4343.461426,4338.974121,4353.205078,4363.846191,4393.077148,4335.769043,4325.384766,4323.461426,4302.820313,4283.846191,4482.948730,4425.128418,4393.717773,4443.077148,0.000000,3.000000,80.000000,,,,0.000000,4.000000,4.000000,4.000000,4.000000,4.000000,4.000000,4.000000,4.000000,4.000000,4.000000,4.000000,4.000000,4.000000,4.000000,100.000000,,,,,,,,,,,,,,,,
1673442700.421225,85.000000,0.000000,4335.384766,4332.436035,4345.384766,4360.000000,4391.922852,4336.153809,4320.897461,4320.384766,4305.384766,4278.077148,4475.512695,4419.871582,4387.051270,4433.846191,0.000000,3.000000,80.000000,,,,0.000000,4.000000,4.000000,4.000000,4.000000,4.000000,4.000000,4.000000,4.000000,4.000000,4.000000,4.000000,4.000000,4.000000,4.000000,100.000000,,,,,,,,,,,,,,,,
1673442700.429037,86.000000,0.000000,4332.436035,4330.256348,4339.230957,4357.307617,4388.333496,4325.256348,4312.051270,4316.538574,4304.102539,4279.871582,4471.666504,4413.846191,4379.743652,4430.897461,0.000000,3.000000,80.000000,,,,0.000000,4.000000,4.000000,4.000000,4.000000,4.000000,4.000000,4.000000,4.000000,4.000000,4.000000,4.000000,4.000000,4.000000,4.000000,100.000000,,,,,,,,,,,,,,,,
1673442700.436850,87.000000,0.000000,4337.692383,4331.794922,4343.974121,4355.897461,4389.230957,4323.717773,4315.769043,4316.410156,4300.641113,4281.153809,4480.256348,4416.025879,4388.461426,4441.025879,0.000000,3.000000,80.000000,,,,0.000000,4.000000,4.000000,4.000000,4.000000,4.000000,4.000000,4.000000,4.000000,4.000000,4.000000,4.000000,4.000000,4.000000,4.000000,100.000000,,,,,,,,,,,,,,,,
1673442700.444662,88.000000,0.000000,4338.846191,4328.846191,4355.897461,4358.333496,4390.897461,4327.820313,4324.358887,4326.025879,4307.179688,4284.102539,4488.974121,4430.128418,4386.538574,4444.743652,0.000000,3.000000,80.000000,,,,0.000000,4.000000,4.000000,4.000000,4.000000,4.000000,4.000000,4.000000,4.000000,4.000000,4.000000,4.000000,4.000000,4.000000,4.000000,100.000000,,,,,,,,,,,,,,,,
1673442700.452475,89.000000,0.000000,4340.000000,4326.025879,4359.358887,4361.922852,4387.948730,4323.077148,4320.000000,4334.487305,4315.769043,4292.692383,4488.846191,4441.025879,4379.487305,4443.846191,0.000000,3.000000,80.000000,,,,0.000000,4.000000,4.000000,4.000000,4.000000,4.000000,4.000000,4.000000,4.000000,4.000000,4.000000,4.000000,4.000000,4.000000,4.000000,100.000000,,,,,,,,,,,,,,,,
1673442700.460287,90.000000,0.000000,4352.051270,4333.333496,4361.794922,4362.179688,4384.743652,4316.922852,4315.256348,4329.358887,4318.717773,4302.179688,4497.692383,4444.487305,4407.179688,4457.563965,0.000000,3.000000,80.000000,,,,0.000000,4.000000,4.000000,4.000000,4.000000,4.000000,4.000000,4.000000,4.000000,4.000000,4.000000,4.000000,4.000000,4.000000,4.000000,100.000000,,,,,,,,,,,,,,,,
1673442700.468100,91.000000,0.000000,4355.128418,4331.794922,4365.000000,4356.794922,4383.717773,4318.461426,4322.436035,4328.461426,4319.102539,4302.436035,4511.025879,4445.641113,4433.333496,4467.307617,0.000000,3.000000,80.000000,,,,0.000000,4.000000,4.000000,4.000000,4.000000,4.000000,4.000000,4.000000,4.000000,4.000000,4.000000,4.000000,4.000000,4.000000,4.000000,100.000000,,,,,,,,,,,,,,,,
1673442700.475912,92.000000,0.000000,4342.563965,4314.743652,4358.846191,4351.666504,4382.692383,4324.743652,4327.179688,4336.538574,4318.589844,4297.179688,4510.384766,4446.794922,4420.384766,4458.077148,0.000000,3.000000,80.000000,,,,0.000000,4.000000,4.000000,4.000000,4.000000,4.000000,4.000000,4.000000,4.000000,4.000000,4.000000,4.000000,4.000000,4.000000,4.000000,100.000000,,,,,,,,,,,,,,,,
1673442700.483725,93.000000,0.000000,4338.717773,4309.102539,4352.563965,4353.589844,4385.512695,4328.333496,4322.179688,4330.384766,4316.794922,4296.282227,4506.153809,4443.461426,4410.897461,4453.974121,0.000000,3.000000,80.000000,,,,0.000000,4.000000,4.000000,4.000000,4.000000,4.000000,4.000000,4.000000,4.000000,4.000000,4.000000,4.000000,4.000000,4.000000,4.000000,100.000000,,,,,,,,,,,,,,,,
1673442700.491537,94.000000,0.000000,4342.307617,4313.333496,4353.461426,4354.743652,4388.717773,4325.897461,4317.563965,4320.384766,4313.974121,4293.717773,4501.794922,4432.179688,4413.974121,4451.794922,0.000000,3.000000,80.000000,,,,0.000000,4.000000,4.000000,4.000000,4.000000,4.000000,4.000000,4.000000,4.000000,4.000000,4.000000,4.000000,4.000000,4.000000,4.000000,100.000000,,,,,,,,,,,,,,,,
1673442700.499350,95.000000,0.000000,4342.051270,4313.717773,4354.615234,4353.205078,4391.153809,4326.922852,4317.692383,4324.358887,4310.897461,4290.256348,4495.769043,4430.256348,4409.487305,4448.717773,0.000000,3.000000,80.000000,,,,0.000000,4.000000,4.000000,4.000000,4.000000,4.000000,4.000000,4.000000,4.000000,4.000000,4.000000,4.000000,4.000000,4.000000,4.000000,100.000000,,,,,,,,,,,,,,,,
1673442700.507162,96.000000,0.000000,4343.717773,4319.102539,4356.153809,4359.102539,4396.282227,4335.000000,4317.820313,4329.358887,4317.563965,4298.589844,4503.205078,4440.641113,4416.922852,4456.410156,0.000000,3.000000,80.000000,,,,0.000000,4.000000,4.000000,4.000000,4.000000,4.000000,4.000000,4.000000,4.000000,4.000000,4.000000,4.000000,4.000000,4.000000,4.000000,100.000000,,,,,,,,,,,,,,,,
1673442700.514975,97.000000,0.000000,4346.666504,4324.743652,4357.051270,4358.461426,4395.128418,4335.769043,4320.000000,4327.051270,4326.794922,4305.256348,4511.538574,4441.410156,4424.230957,4461.666504,0.000000,3.000000,80.000000,,,,0.000000,4.000000,4.000000,4.000000,4.000000,4.000000,4.000000,4.000000,4.000000,4.000000,4.000000,4.000000,4.000000,4.000000,4.000000,100.000000,,,,,,,,,,,,,,,,
1673442700.522787,98.000000,0.000000,4344.871582,4320.769043,4351.794922,4349.487305,4388.589844,4328.461426,4322.948730,4325.897461,4323.077148,4300.128418,4504.358887,4435.897461,4412.436035,4455.128418,0.000000,3.000000,80.000000,,,,0.000000,4.000000,4.000000,4.000000,4.000000,4.000000,4.000000,4.000000,4.000000,4.000000,4.000000,4.000000,4.000000,4.000000,4.000000,100.000000,,,,,,,,,,,,,,,,
1673442700.530600,99.000000,0.000000,4342.563965,4318.717773,4353.717773,4350.256348,4389.615234,4326.410156,4326.282227,4332.948730,4320.641113,4298.974121,4503.974121,4439.230957,4412.436035,4455.897461,0.000000,3.000000,80.000000,,,,0.000000,4.000000,4.000000,4.000000,4.000000,4.000000,4.000000,4.000000,4.000000,4.000000,4.000000,4.000000,4.000000,4.000000,4.000000,100.000000,,,,,,,,,,,,,,,,
1673442700.538412,100.000000,0.000000,4352.179688,4328.205078,4366.282227,4360.897461,4393.974121,4328.461426,4332.051270,4339.743652,4326.794922,4305.512695,4513.589844,4452.307617,4426.922852,4469.358887,0.000000,3.000000,80.000000,,,,0.000000,4.000000,4.000000,4.000000,4.000000,4.000000,4.000000,4.000000,4.000000,4.000000,4.000000,4.000000,4.000000,4.000000,4.000000,100.000000,,,,,,,,,,,,,,,,
1673442700.546225,101.000000,0.000000,4365.000000,4335.128418,4372.948730,4365.384766,4392.948730,4326.025879,4332.948730,4336.538574,4322.051270,4301.025879,4513.717773,4460.128418,4424.487305,4475.769043,0.000000,3.000000,80.000000,,,,0.000000,4.000000,4.000000,4.000000,4.000000,4.000000,4.000000,4.000000,4.000000,4.000000,4.000000,4.000000,4.000000,4.000000,4.000000,100.000000,,,,,,,,,,,,,,,,
1673442700.554037,102.000000,0.000000,4362.820313,4331.153809,4372.436035,4364.615234,4390.128418,4324.230957,4326.410156,4330.384766,4309.615234,4291.025879,4510.897461,4457.051270,4413.974121,4471.410156,0.000000,3.000000,80.000000,,,,0.000000,4.000000,4.000000,4.000000,4.000000,4.000000,4.000000,4.000000,4.000000,4.000000,4.000000,4.000000,4.000000,4.000000,4.000000,100.000000,,,,,,,,,,,,,,,,
1673442700.561850,103.000000,0.000000,4352.179688,4326.282227,4365.000000,4362.948730,4390.000000,4324.743652,4323.717773,4326.922852,4308.333496,4290.641113,4504.743652,4446.282227,4411.153809,4464.871582,0.000000,3.000000,80.000000,,,,0.000000,4.000000,4.000000,4.000000,4.000000,4.000000,4.000000,4.000000,4.000000,4.000000,4.000000,4.000000,4.000000,4.000000,4.000000,100.000000,,,,,,,,,,,,,,,,
1673442700.569662,104.000000,0.000000,4345.512695,4322.436035,4356.153809,4355.897461,4389.230957,4324.871582,4326.153809,4325.512695,4313.846191,4292.948730,4492.820313,4433.589844,4402.179688,4455.897461,0.000000,3.000000,80.000000,,,,0.000000,4.000000,4.000000,4.000000,4.000000,4.000000,4.000000,4.000000,4.000000,4.000000,4.000000,4.000000,4.000000,4.000000,4.000000,100.000000,,,,,,,,,,,,,,,,
1673442700.577475,105.000000,0.000000,4344.230957,4321.410156,4358.077148,4355.641113,4390.128418,4329.743652,4330.000000,4326.025879,4315.641113,4292.563965,4493.717773,4429.230957,4397.051270,4452.436035,0.000000,3.000000,80.000000,,,,0.000000,4.000000,4.000000,4.000000,4.000000,4.000000,4.000000,4.000000,4.000000,4.000000,4.000000,4.000000,4.000000,4.000000,4.000000,100.000000,,,,,,,,,,,,,,,,
1673442700.585287,106.000000,0.000000,4350.512695,4328.205078,4367.179688,4363.846191,4394.871582,4336.538574,4333.461426,4330.128418,4318.974121,4298.846191,4506.538574,4441.153809,4414.871582,4463.205078,0.000000,3.000000,80.000000,,,,0.000000,4.000000,4.000000,4.000000,4.000000,4.000000,4.000000,4.000000,4.000000,4.000000,4.000000,4.000000,4.000000,4.000000,4.000000,100.000000,,,,,,,,,,,,,,,,
1673442700.593100,107.000000,0.000000,4361.153809,4332.820313,4371.666504,4364.871582,4396.282227,4336.666504,4330.897461,4333.077148,4324.871582,4307.563965,4511.153809,4458.974121,4429.230957,4475.256348,0.000000,3.000000,80.000000,,,,0.000000,4.000000,4.000000,4.000000,4.000000,4.000000,4.000000,4.000000,4.000000,4.000000,4.000000,4.000000,4.000000,4.000000,4.000000,100.000000,,,,,,,,,,,,,,,,
1673442700.600912,108.000000,0.000000,4368.333496,4334.102539,4374.230957,4365.897461,4395.384766,4330.256348,4322.948730,4327.820313,4323.077148,4308.333496,4508.589844,4457.948730,4422.948730,4476.538574,0.000000,3.000000,80.000000,,,,0.000000,4.000000,4.000000,4.000000,4.000000,4.000000,4.000000,4.000000,4.000000,4.000000,4.000000,4.000000,4.000000,4.000000,4.000000,100.000000,,,,,,,,,,,,,,,,
1673442700.608725,109.000000,0.000000,4376.153809,4346.666504,4381.666504,4376.282227,4398.333496,4330.256348,4324.358887,4330.000000,4321.922852,4310.256348,4516.538574,4455.641113,4426.922852,4484.358887,0.000000,3.000000,80.000000,,,,0.000000,4.000000,4.000000,4.000000,4.000000,4.000000,4.000000,4.000000,4.000000,4.000000,4.000000,4.000000,4.000000,4.000000,4.000000,100.000000,,,,,,,,,,,,,,,,
1673442700.616537,110.000000,0.000000,4377.948730,4339.743652,4386.025879,4373.717773,4395.384766,4336.410156,4334.358887,4350.384766,4332.948730,4321.794922,4529.871582,4472.563965,4441.538574,4494.102539,0.000000,3.000000,80.000000,,,,0.000000,4.000000,4.000000,4.000000,4.000000,4.000000,4.000000,4.000000,4.000000,4.000000,4.000000,4.000000,4.000000,4.000000,4.000000,100.000000,,,,,,,,,,,,,,,,
1673442700.624350,111.000000,0.000000,4362.692383,4303.974121,4378.974121,4352.179688,4383.589844,4333.589844,4336.025879,4357.179688,4337.436035,4321.410156,4527.051270,4476.410156,4428.974121,4483.205078,0.000000,3.000000,80.000000,,,,0.000000,4.000000,4.000000,4.000000,4.000000,4.000000,4.000000,4.000000,4.000000,4.000000,4.000000,4.000000,4.000000,4.000000,4.000000,100.000000,,,,,,,,,,,,,,,,
1673442700.632162,112.000000,0.000000,4350.128418,4310.128418,4369.102539,4350.512695,4384.358887,4324.615234,4327.820313,4335.897461,4320.897461,4299.743652,4505.000000,4454.743652,4403.205078,4468.717773,0.000000,3.000000,80.000000,,,,0.000000,4.000000,4.000000,4.000000,4.000000,4.000000,4.000000,4.000000,4.000000,4.000000,4.000000,4.000000,4.000000,4.000000,4.000000,100.000000,,,,,,,,,,,,,,,,
1673442700.639975,113.000000,0.000000,4360.512695,4360.512695,4371.922852,4373.333496,4395.769043,4324.871582,4321.410156,4322.307617,4305.000000,4285.384766,4489.871582,4441.794922,4395.384766,4471.922852,0.000000,3.000000,80.000000,,,,0.000000,4.000000,4.000000,4.000000,4.000000,4.000000,4.000000,4.000000,4.000000,4.000000,4.000000,4.000000,4.000000,4.000000,4.000000,100.000000,,,,,,,,,,,,,,,,
1673442700.647787,114.000000,0.000000,4376.282227,4392.179688,4381.153809,4389.487305,4401.282227,4330.897461,4318.974121,4331.025879,4308.589844,4287.820313,4492.051270,4449.615234,4386.410156,4477.179688,0.000000,3.000000,80.000000,,,,0.000000,4.000000,4.000000,4.000000,4.000000,4.000000,4.000000,4.000000,4.000000,4.000000,4.000000,4.000000,4.000000,4.000000,4.000000,100.000000,,,,,,,,,,,,,,,,
1673442700.655600,115.000000,0.000000,4379.743652,4412.307617,4383.077148,4396.410156,4404.230957,4329.358887,4315.384766,4332.179688,4313.589844,4286.410156,4487.051270,4450.512695,4362.563965,4473.333496,0.000000,3.000000,80.000000,,,,0.000000,4.000000,4.000000,4.000000,4.000000,4.000000,4.000000,4.000000,4.000000,4.000000,4.000000,4.000000,4.000000,4.000000,4.000000,100.000000,,,,,,,,,,,,,,,,
1673442700.663412,116.000000,0.000000,4380.641113,4442.179688,4383.717773,4407.563965,4410.128418,4326.153809,4310.641113,4320.641113,4306.282227,4276.153809,4470.384766,4439.871582,4340.000000,4468.717773,0.000000,3.000000,80.000000,,,,0.000000,4.000000,4.000000,4.000000,4.000000,4.000000,4.000000,4.000000,4.000000,4.000000,4.000000,4.000000,4.000000,4.000000,4.000000,100.000000,,,,,,,,,,,,,,,,
1673442700.671225,117.000000,0.000000,4376.153809,4451.025879,4382.436035,4413.333496,4411.794922,4327.179688,4307.051270,4315.897461,4298.077148,4262.948730,4451.794922,4429.615234,4315.641113,4459.358887,0.000000,3.000000,80.000000,,,,0.000000,4.000000,4.000000,4.000000,4.000000,4.000000,4.000000,4.000000,4.000000,4.000000,4.000000,4.000000,4.000000,4.000000,4.000000,100.000000,,,,,,,,,,,,,,,,
1673442700.679037,118.000000,0.000000,4367.051270,4440.769043,4373.846191,4406.410156,4409.358887,4328.205078,4304.743652,4316.538574,4295.512695,4255.256348,4441.666504,4417.563965,4295.000000,4447.179688,0.000000,3.000000,80.000000,,,,0.000000,4.000000,4.000000,4.000000,4.000000,4.000000,4.000000,4.000000,4.000000,4.000000,4.000000,4.000000,4.000000,4.000000,4.000000,100.000000,,,,,,,,,,,,,,,,
1673442700.686850,119.000000,0.000000,4363.717773,4435.897461,4366.282227,4398.846191,4410.512695,4330.384766,4308.333496,4315.128418,4293.589844,4258.333496,4441.410156,4410.256348,4291.794922,4441.666504,0.000000,3.000000,80.000000,,,,0.000000,4.000000,4.000000,4.000000,4.000000,4.000000,4.000000,4.000000,4.000000,4.000000,4.000000,4.000000,4.000000,4.000000,4.000000,100.000000,,,,,,,,,,,,,,,,
1673442700.694662,120.000000,0.000000,4357.820313,4430.000000,4362.436035,4395.128418,4409.615234,4334.743652,4317.692383,4315.897461,4294.615234,4258.589844,4437.307617,4411.282227,4292.692383,4437.820313,0.000000,3.000000,80.000000,,,,0.000000,4.000000,4.000000,4.000000,4.000000,4.000000,4.000000,4.000000,4.000000,4.000000,4.000000,4.000000,4.000000,4.000000,4.000000,100.000000,,,,,,,,,,,,,,,,
1673442700.702475,121.000000,0.000000,4350.897461,4423.077148,4360.000000,4392.179688,4404.871582,4337.436035,4325.641113,4317.563965,4297.820313,4254.230957,4431.410156,4411.025879,4288.589844,4436.025879,0.000000,3.000000,80.000000,,,,0.000000,4.000000,4.000000,4.000000,4.000000,4.000000,4.000000,4.000000,4.000000,4.000000,4.000000,4.000000,4.000000,4.000000,4.000000,100.000000,,,,,,,,,,,,,,,,
1673442700.710287,122.000000,0.000000,4355.384766,4423.461426,4361.025879,4392.563965,4402.051270,4335.256348,4324.743652,4316.794922,4297.179688,4257.179688,4437.436035,4409.487305,4290.000000,4438.717773,0.000000,3.000000,80.000000,,,,0.000000,4.000000,4.000000,4.000000,4.000000,4.000000,4.000000,4.000000,4.000000,4.000000,4.000000,4.000000,4.000000,4.000000,4.000000,100.000000,,,,,,,,,,,,,,,,
1673442700.718100,123.000000,0.000000,4364.230957,4427.948730,4366.794922,4397.179688,4404.230957,4329.871582,4317.436035,4312.051270,4295.769043,4263.589844,4444.615234,4416.666504,4302.563965,4442.436035,0.000000,3.000000,80.000000,,,,0.000000,4.000000,4.000000,4.000000,4.000000,4.000000,4.000000,4.000000,4.000000,4.000000,4.000000,4.000000,4.000000,4.000000,4.000000,100.000000,,,,,,,,,,,,,,,,
1673442700.725912,124.000000,0.000000,4366.282227,4429.487305,4371.410156,4402.948730,4406.538574,4327.948730,4316.666504,4308.589844,4296.794922,4263.333496,4447.563965,4427.307617,4312.948730,4448.846191,0.000000,3.000000,80.000000,,,,0.000000,4.000000,4.000000,4.000000,4.000000,4.000000,4.000000,4.000000,4.000000,4.000000,4.000000,4.000000,4.000000,4.000000,4.000000,100.000000,,,,,,,,,,,,,,,,
1673442700.733725,125.000000,0.000000,4365.384766,4425.512695,4372.436035,4406.410156,4405.000000,4332.051270,4319.871582,4315.641113,4301.538574,4261.794922,4455.897461,4431.794922,4312.820313,4453.077148,0.000000,3.000000,80.000000,,,,0.000000,4.000000,4.000000,4.000000,4.000000,4.000000,4.000000,4.000000,4.000000,4.000000,4.000000,4.000000,4.000000,4.000000,4.000000,100.000000,,,,,,,,,,,,,,,,
1673442700.741537,126.000000,0.000000,4366.538574,4420.769043,4370.000000,4404.871582,4406.538574,4335.128418,4318.846191,4326.666504,4307.820313,4266.794922,4456.538574,4428.717773,4312.948730,4450.256348,0.000000,3.000000,80.000000,,,,0.000000,4.000000,4.000000,4.000000,4.000000,4.000000,4.000000,4.000000,4.000000,4.000000,4.000000,4.000000,4.000000,4.000000,4.000000,100.000000,,,,,,,,,,,,,,,,
1673442700.749350,127.000000,0.000000,4359.487305,4415.384766,4362.179688,4395.128418,4408.846191,4335.897461,4320.512695,4332.820313,4308.717773,4269.487305,4445.897461,4420.000000,4310.128418,4443.589844,0.000000,3.000000,80.000000,,,,0.000000,4.000000,4.000000,4.000000,4.000000,4.000000,4.000000,4.000000,4.000000,4.000000,4.000000,4.000000,4.000000,4.000000,4.000000,100.000000,,,,,,,,,,,,,,,,
1673442700.757162,0.000000,0.000000,4348.846191,4411.922852,4355.000000,4388.974121,4406.282227,4337.692383,4325.000000,4335.769043,4306.922852,4268.077148,4442.051270,4412.563965,4300.128418,4439.615234,0.000000,3.000000,80.000000,,,,0.000000,4.000000,4.000000,4.000000,4.000000,4.000000,4.000000,4.000000,4.000000,4.000000,4.000000,4.000000,4.000000,4.000000,4.000000,100.000000,,,,,,,,,,,,,,,,
1673442700.764975,1.000000,0.000000,4349.871582,4411.666504,4354.615234,4391.666504,4402.307617,4335.897461,4326.282227,4334.358887,4306.025879,4265.897461,4445.641113,4411.922852,4296.282227,4438.205078,0.000000,3.000000,80.000000,,,,0.000000,4.000000,4.000000,4.000000,4.000000,4.000000,4.000000,4.000000,4.000000,4.000000,4.000000,4.000000,4.000000,4.000000,4.000000,100.000000,,,,,,,,,,,,,,,,
1673442700.772787,2.000000,0.000000,4356.922852,4410.384766,4358.461426,4391.922852,4401.922852,4333.205078,4326.922852,4328.205078,4301.282227,4262.563965,4442.820313,4413.205078,4298.333496,4436.794922,0.000000,3.000000,80.000000,,,,0.000000,4.000000,4.000000,4.000000,4.000000,4.000000,4.000000,4.000000,4.000000,4.000000,4.000000,4.000000,4.000000,4.000000,4.000000,100.000000,,,,,,,,,,,,,,,,
1673442700.780600,3.000000,0.000000,4356.025879,4408.077148,4358.717773,4389.743652,4403.461426,4335.384766,4325.897461,4325.256348,4296.153809,4260.256348,4436.666504,4410.512695,4298.846191,4438.589844,0.000000,3.000000,80.000000,,,,0.000000,4.000000,4.000000,4.000000,4.000000,4.000000,4.000000,4.000000,4.000000,4.000000,4.000000,4.000000,4.000000,4.000000,4.000000,100.000000,1.000000,100.000000,4.000000,4.000000,4.000000,4.000000,4.000000,4.000000,4.000000,4.000000,4.000000,4.000000,4.000000,4.000000,4.000000,4.000000
1673442700.788412,4.000000,0.000000,4350.128418,4403.974121,4352.948730,4388.589844,4400.128418,4334.743652,4325.128418,4329.358887,4299.102539,4261.025879,4439.871582,4405.256348,4303.205078,4438.846191,0.000000,3.000000,80.000000,,,,0.000000,4.000000,4.000000,4.000000,4.000000,4.000000,4.000000,4.000000,4.000000,4.000000,4.000000,4.000000,4.000000,4.000000,4.000000,100.000000,,,,,,,,,,,,,,,,
1673442700.796225,5.000000,0.000000,4352.051270,4399.871582,4352.051270,4390.769043,4396.153809,4334.230957,4332.307617,4331.410156,4301.538574,4262.692383,4445.384766,4402.179688,4307.948730,4435.256348,0.000000,3.000000,80.000000,,,,0.000000,4.000000,4.000000,4.000000,4.000000,4.000000,4.000000,4.000000,4.000000,4.000000,4.000000,4.000000,4.000000,4.000000,4.000000,100.000000,,,,,,,,,,,,,,,,
1673442700.804037,6.000000,0.000000,4361.410156,4401.282227,4358.333496,4394.102539,4399.487305,4340.256348,4333.974121,4329.871582,4298.461426,4262.436035,4443.333496,4410.256348,4308.717773,4437.563965,0.000000,3.000000,80.000000,,,,0.000000,4.000000,4.000000,4.000000,4.000000,4.000000,4.000000,4.000000,4.000000,4.000000,4.000000,4.000000,4.000000,4.000000,4.000000,100.000000,,,,,,,,,,,,,,,,
1673442700.811850,7.000000,0.000000,4369.743652,4410.641113,4365.897461,4397.563965,4408.077148,4344.102539,4327.948730,4330.769043,4297.948730,4263.205078,4448.205078,4427.563965,4317.948730,4451.282227,0.000000,3.000000,80.000000,,,,0.000000,4.000000,4.000000,4.000000,4.000000,4.000000,4.000000,4.000000,4.000000,4.000000,4.000000,4.000000,4.000000,4.000000,4.000000,100.000000,,,,,,,,,,,,,,,,
1673442700.819662,8.000000,0.000000,4373.589844,4419.102539,4371.538574,4399.871582,4413.589844,4342.307617,4329.487305,4330.769043,4299.871582,4266.794922,4459.358887,4433.333496,4329.230957,4462.820313,0.000000,3.000000,80.000000,,,,0.000000,4.000000,4.000000,4.000000,4.000000,4.000000,4.000000,4.000000,4.000000,4.000000,4.000000,4.000000,4.000000,4.000000,4.000000,100.000000,,,,,,,,,,,,,,,,
1673442700.827475,9.000000,0.000000,4373.846191,4415.256348,4372.436035,4397.307617,4411.282227,4340.769043,4331.410156,4327.051270,4298.205078,4271.025879,4462.307617,4429.358887,4330.256348,4458.461426,0.000000,3.000000,80.000000,,,,0.000000,4.000000,4.000000,4.000000,4.000000,4.000000,4.000000,4.000000,4.000000,4.000000,4.000000,4.000000,4.000000,4.000000,4.000000,100.000000,,,,,,,,,,,,,,,,
1673442700.835287,10.000000,0.000000,4377.563965,4411.922852,4375.769043,4397.820313,4410.897461,4341.538574,4325.384766,4325.641113,4298.974121,4277.307617,4467.563965,4437.307617,4336.794922,4458.717773,0.000000,3.000000,80.000000,,,,0.000000,4.000000,4.000000,4.000000,4.000000,4.000000,4.000000,4.000000,4.000000,4.000000,4.000000,4.000000,4.000000,4.000000,4.000000,100.000000,,,,,,,,,,,,,,,,
1673442700.843100,11.000000,0.000000,4381.282227,4415.769043,4380.256348,4400.000000,4413.077148,4340.897461,4323.205078,4325.512695,4302.948730,4281.922852,4480.641113,4447.436035,4351.794922,4471.410156,0.000000,3.000000,80.000000,,,,0.000000,4.000000,4.000000,4.000000,4.000000,4.000000,4.000000,4.000000,4.000000,4.000000,4.000000,4.000000,4.000000,4.000000,4.000000,100.000000,,,,,,,,,,,,,,,,
1673442700.850912,12.000000,0.000000,4377.948730,4413.077148,4378.077148,4396.025879,4411.538574,4339.615234,4326.025879,4326.025879,4303.974121,4283.717773,4480.897461,4439.871582,4356.153809,4470.769043,0.000000,3.000000,80.000000,,,,0.000000,4.000000,4.000000,4.000000,4.000000,4.000000,4.000000,4.000000,4.000000,4.000000,4.000000,4.000000,4.000000,4.000000,4.000000,100.000000,,,,,,,,,,,,,,,,
1673442700.858725,13.000000,0.000000,4369.487305,4403.077148,4369.358887,4391.025879,4408.846191,4341.025879,4326.282227,4323.077148,4298.717773,4279.871582,4465.897461,4424.487305,4347.948730,4455.000000,0.000000,3.000000,80.000000,,,,0.000000,4.000000,4.000000,4.000000,4.000000,4.000000,4.000000,4.000000,4.000000,4.000000,4.000000,4.000000,4.000000,4.000000,4.000000,100.000000,,,,,,,,,,,,,,,,
1673442700.866537,14.000000,0.000000,4360.897461,4397.179688,4360.512695,4388.974121,4404.230957,4337.692383,4324.102539,4314.358887,4288.974121,4267.051270,4457.436035,4413.974121,4340.897461,4444.615234,0.000000,3.000000,80.000000,,,,0.000000,4.000000,4.000000,4.000000,4.000000,4.000000,4.000000,4.000000,4.000000,4.000000,4.000000,4.000000,4.000000,4.000000,4.000000,100.000000,,,,,,,,,,,,,,,,
1673442700.874350,15.000000,0.000000,4357.179688,4395.897461,4354.102539,4386.666504,4400.897461,4329.871582,4319.230957,4313.077148,4287.563965,4260.256348,4456.794922,4410.512695,4338.974121,4441.282227,0.000000,3.000000,80.000000,,,,0.000000,4.000000,4.000000,4.000000,4.000000,4.000000,4.000000,4.000000,4.000000,4.000000,4.000000,4.000000,4.000000,4.000000,4.000000,100.000000,,,,,,,,,,,,,,,,
1673442700.882162,16.000000,0.000000,4357.307617,4396.025879,4350.512695,4381.666504,4401.410156,4328.077148,4315.769043,4318.589844,4288.205078,4264.358887,4453.333496,4409.358887,4340.128418,4439.487305,0.000000,3.000000,80.000000,,,,0.000000,4.000000,4.000000,4.000000,4.000000,4.000000,4.000000,4.000000,4.000000,4.000000,4.000000,4.000000,4.000000,4.000000,4.000000,100.000000,,,,,,,,,,,,,,,,
1673442700.889975,17.000000,0.000000,4353.333496,4391.922852,4352.563965,4379.487305,4397.563965,4330.384766,4320.000000,4315.512695,4281.538574,4261.794922,4442.948730,4406.153809,4337.948730,4435.769043,0.000000,3.000000,80.000000,,,,0.000000,4.000000,4.000000,4.000000,4.000000,4.000000,4.000000,4.000000,4.000000,4.000000,4.000000,4.000000,4.000000,4.000000,4.000000,100.000000,,,,,,,,,,,,,,,,
1673442700.897787,18.000000,0.000000,4355.000000,4387.051270,4356.922852,4380.769043,4393.589844,4330.769043,4325.256348,4307.948730,4278.589844,4255.769043,4442.563965,4407.692383,4337.179688,4433.974121,0.000000,3.000000,80.000000,,,,0.000000,4.000000,4.000000,4.000000,4.000000,4.000000,4.000000,4.000000,4.000000,4.000000,4.000000,4.000000,4.000000,4.000000,4.000000,100.000000,,,,,,,,,,,,,,,,
1673442700.905600,19.000000,0.000000,4360.769043,4389.487305,4358.846191,4381.922852,4402.436035,4336.153809,4326.538574,4312.563965,4288.461426,4262.692383,4456.794922,4411.282227,4343.077148,4437.563965,0.000000,3.000000,80.000000,,,,0.000000,4.000000,4.000000,4.000000,4.000000,4.000000,4.000000,4.000000,4.000000,4.000000,4.000000,4.000000,4.000000,4.000000,4.000000,100.000000,,,,,,,,,,,,,,,,
1673442700.913412,20.000000,0.000000,4357.436035,4393.077148,4357.179688,4380.512695,4410.000000,4341.794922,4326.410156,4317.179688,4289.102539,4264.487305,4455.769043,4407.692383,4343.461426,4436.025879,0.000000,3.000000,80.000000,,,,0.000000,4.000000,4.000000,4.000000,4.000000,4.000000,4.000000,4.000000,4.000000,4.000000,4.000000,4.000000,4.000000,4.000000,4.000000,100.000000,,,,,,,,,,,,,,,,
1673442700.921225,21.000000,0.000000,4355.128418,4391.666504,4356.153809,4376.538574,4405.384766,4337.563965,4324.102539,4305.769043,4275.128418,4253.205078,4444.615234,4405.769043,4339.487305,4430.256348,0.000000,3.000000,80.000000,,,,0.000000,4.000000,4.000000,4.000000,4.000000,4.000000,4.000000,4.000000,4.000000,4.000000,4.000000,4.000000,4.000000,4.000000,4.000000,100.000000,,,,,,,,,,,,,,,,
1673442700.929037,22.000000,0.000000,4356.025879,4382.051270,4357.179688,4371.794922,4402.436035,4335.256348,4325.641113,4303.461426,4281.410156,4254.743652,4451.025879,4412.948730,4339.487305,4432.436035,0.000000,3.000000,80.000000,,,,0.000000,4.000000,4.000000,4.000000,4.000000,4.000000,4.000000,4.000000,4.000000,4.000000,4.000000,4.000000,4.000000,4.000000,4.000000,100.000000,,,,,,,,,,,,,,,,
1673442700.936850,23.000000,0.000000,4355.000000,4373.846191,4357.179688,4370.384766,4404.230957,4338.589844,4333.205078,4316.025879,4297.948730,4264.230957,4460.384766,4416.922852,4337.436035,4436.025879,0.000000,3.000000,80.000000,,,,0.000000,4.000000,4.000000,4.000000,4.000000,4.000000,4.000000,4.000000,4.000000,4.000000,4.000000,4.000000,4.000000,4.000000,4.000000,100.000000,,,,,,,,,,,,,,,,
1673442700.944662,24.000000,0.000000,4359.358887,4382.436035,4360.769043,4380.000000,4406.153809,4337.051270,4335.256348,4318.717773,4296.922852,4265.512695,4459.487305,4420.512695,4338.205078,4436.025879,0.000000,3.000000,80.000000,,,,0.000000,4.000000,4.000000,4.000000,4.000000,4.000000,4.000000,4.000000,4.000000,4.000000,4.000000,4.000000,4.000000,4.000000,4.000000,100.000000,,,,,,,,,,,,,,,,
1673442700.952475,25.000000,0.000000,4369.743652,4398.846191,4367.563965,4391.922852,4405.256348,4335.256348,4333.461426,4317.436035,4291.922852,4266.153809,4466.666504,4428.974121,4349.358887,4443.461426,0.000000,3.000000,80.000000,,,,0.000000,4.000000,4.000000,4.000000,4.000000,4.000000,4.000000,4.000000,4.000000,4.000000,4.000000,4.000000,4.000000,4.000000,4.000000,100.000000,,,,,,,,,,,,,,,,
1673442700.960287,26.000000,0.000000,4372.948730,4402.948730,4370.641113,4391.410156,4404.871582,4335.641113,4331.666504,4321.794922,4295.000000,4272.948730,4475.769043,4430.641113,4355.641113,4451.410156,0.000000,3.000000,80.000000,,,,0.000000,4.000000,4.000000,4.000000,4.000000,4.000000,4.000000,4.000000,4.000000,4.000000,4.000000,4.000000,4.000000,4.000000,4.000000,100.000000,,,,,,,,,,,,,,,,
1673442700.968100,27.000000,0.000000,4371.282227,4398.077148,4371.538574,4385.512695,4407.307617,4335.000000,4329.230957,4322.051270,4298.974121,4278.205078,4471.922852,4428.717773,4351.666504,4448.974121,0.000000,3.000000,80.000000,,,,0.000000,4.000000,4.000000,4.000000,4.000000,4.000000,4.000000,4.000000,4.000000,4.000000,4.000000,4.000000,4.000000,4.000000,4.000000,100.000000,,,,,,,,,,,,,,,,
1673442700.975912,28.000000,0.000000,4373.333496,4395.256348,4374.230957,4388.077148,4406.922852,4334.487305,4332.820313,4318.974121,4300.512695,4276.153809,4473.333496,4430.256348,4352.692383,4446.922852,0.000000,3.000000,80.000000,,,,0.000000,4.000000,4.000000,4.000000,4.000000,4.000000,4.000000,4.000000,4.000000,4.000000,4.000000,4.000000,4.000000,4.000000,4.000000,100.000000,,,,,,,,,,,,,,,,
1673442700.983725,29.000000,0.000000,4371.794922,4391.538574,4373.333496,4392.820313,4403.717773,4334.358887,4337.820313,4317.692383,4294.358887,4267.820313,4474.358887,4430.384766,4352.307617,4445.000000,0.000000,3.000000,80.000000,,,,0.000000,4.000000,4.000000,4.000000,4.000000,4.000000,4.000000,4.000000,4.000000,4.000000,4.000000,4.000000,4.000000,4.000000,4.000000,100.000000,,,,,,,,,,,,,,,,
1673442700.991537,30.000000,0.000000,4368.461426,4388.846191,4367.692383,4384.743652,4402.692383,4332.948730,4331.153809,4317.820313,4283.589844,4258.461426,4466.794922,4424.487305,4346.922852,4442.179688,0.000000,3.000000,80.000000,,,,0.000000,4.000000,4.000000,4.000000,4.000000,4.000000,4.000000,4.000000,4.000000,4.000000,4.000000,4.000000,4.000000,4.000000,4.000000,100.000000,,,,,,,,,,,,,,,,
1673442700.999350,31.000000,0.000000,4372.307617,4390.128418,4369.102539,4380.769043,4406.922852,4332.820313,4320.512695,4318.333496,4285.512695,4262.179688,4468.205078,4423.717773,4350.000000,4445.128418,0.000000,3.000000,80.000000,,,,0.000000,4.000000,4.000000,4.000000,4.000000,4.000000,4.000000,4.000000,4.000000,4.000000,4.000000,4.000000,4.000000,4.000000,4.000000,100.000000,,,,,,,,,,,,,,,,
1673442701.007162,32.000000,0.000000,4375.256348,4390.512695,4375.128418,4390.897461,4409.487305,4334.102539,4324.102539,4320.641113,4293.077148,4272.179688,4475.641113,4435.512695,4357.563965,4450.384766,0.000000,3.000000,80.000000,,,,0.000000,4.000000,4.000000,4.000000,4.000000,4.000000,4.000000,4.000000,4.000000,4.000000,4.000000,4.000000,4.000000,4.000000,4.000000,100.000000,,,,,,,,,,,,,,,,
1673442701.014975,33.000000,0.000000,4376.538574,4393.846191,4375.897461,4395.512695,4411.794922,4337.563965,4332.436035,4323.589844,4299.358887,4277.563965,4480.769043,4445.897461,4361.666504,4455.897461,0.000000,3.000000,80.000000,,,,0.000000,4.000000,4.000000,4.000000,4.000000,4.000000,4.000000,4.000000,4.000000,4.000000,4.000000,4.000000,4.000000,4.000000,4.000000,100.000000,,,,,,,,,,,,,,,,
1673442701.022787,34.000000,0.000000,4380.256348,4400.384766,4375.000000,4393.589844,4415.256348,4343.846191,4334.871582,4329.230957,4307.692383,4288.205078,4490.897461,4446.153809,4371.410156,4461.666504,0.000000,3.000000,80.000000,,,,0.000000,4.000000,4.000000,4.000000,4.000000,4.000000,4.000000,4.000000,4.000000,4.000000,4.000000,4.000000,4.000000,4.000000,4.000000,100.000000,,,,,,,,,,,,,,,,
1673442701.030600,35.000000,0.000000,4378.846191,4395.897461,4372.051270,4390.641113,4411.153809,4340.641113,4335.641113,4333.077148,4309.358887,4293.717773,4490.384766,4444.230957,4375.897461,4461.153809,0.000000,3.000000,80.000000,,,,0.000000,4.000000,4.000000,4.000000,4.000000,4.000000,4.000000,4.000000,4.000000,4.000000,4.000000,4.000000,4.000000,4.000000,4.000000,100.000000,,,,,,,,,,,,,,,,
1673442701.038412,36.000000,0.000000,4371.666504,4384.615234,4366.666504,4385.128418,4403.974121,4331.282227,4335.128418,4327.436035,4301.538574,4284.871582,4476.666504,4443.461426,4367.179688,4453.846191,0.000000,3.000000,80.000000,,,,0.000000,4.000000,4.000000,4.000000,4.000000,4.000000,4.000000,4.000000,4.000000,4.000000,4.000000,4.000000,4.000000,4.000000,4.000000,100.000000,,,,,,,,,,,,,,,,
1673442701.046225,37.000000,0.000000,4372.563965,4388.333496,4368.077148,4385.512695,4404.102539,4332.051270,4329.615234,4323.077148,4297.563965,4279.487305,4475.128418,4441.153809,4362.820313,4453.205078,0.000000,3.000000,80.000000,,,,0.000000,4.000000,4.000000,4.000000,4.000000,4.000000,4.000000,4.000000,4.000000,4.000000,4.000000,4.000000,4.000000,4.000000,4.000000,100.000000,,,,,,,,,,,,,,,,
1673442701.054037,38.000000,0.000000,4378.974121,4397.051270,4374.230957,4392.820313,4408.205078,4336.538574,4325.000000,4326.025879,4302.820313,4284.871582,4485.641113,4442.436035,4367.051270,4459.102539,0.000000,3.000000,80.000000,,,,0.000000,4.000000,4.000000,4.000000,4.000000,4.000000,4.000000,4.000000,4.000000,4.000000,4.000000,4.000000,4.000000,4.000000,4.000000,100.000000,,,,,,,,,,,,,,,,
1673442701.061850,39.000000,0.000000,4378.077148,4392.307617,4373.717773,4392.051270,4408.846191,4336.410156,4329.230957,4327.692383,4307.820313,4287.692383,4486.282227,4441.922852,4369.871582,4459.615234,0.000000,3.000000,80.000000,,,,0.000000,4.000000,4.000000,4.000000,4.000000,4.000000,4.000000,4.000000,4.000000,4.000000,4.000000,4.000000,4.000000,4.000000,4.000000,100.000000,,,,,,,,,,,,,,,,
1673442701.069662,40.000000,0.000000,4372.692383,4385.384766,4371.025879,4387.692383,4407.563965,4338.589844,4332.051270,4328.205078,4305.512695,4283.974121,4482.820313,4434.871582,4368.589844,4456.794922,0.000000,3.000000,80.000000,,,,0.000000,4.000000,4.000000,4.000000,4.000000,4.000000,4.000000,4.000000,4.000000,4.000000,4.000000,4.000000,4.000000,4.000000,4.000000,100.000000,,,,,,,,,,,,,,,,
1673442701.077475,41.000000,0.000000,4371.282227,4383.205078,4368.974121,4386.153809,4406.410156,4341.538574,4326.666504,4323.333496,4296.153809,4280.256348,4486.922852,4428.846191,4364.102539,4456.410156,0.000000,3.000000,80.000000,,,,0.000000,4.000000,4.000000,4.000000,4.000000,4.000000,4.000000,4.000000,4.000000,4.000000,4.000000,4.000000,4.000000,4.000000,4.000000,100.000000,,,,,,,,,,,,,,,,
1673442701.085287,42.000000,0.000000,4373.205078,4384.743652,4367.563965,4385.128418,4405.769043,4341.666504,4325.897461,4315.000000,4292.563965,4279.871582,4489.230957,4429.871582,4361.410156,4456.410156,0.000000,3.000000,80.000000,,,,0.000000,4.000000,4.000000,4.000000,4.000000,4.000000,4.000000,4.000000,4.000000,4.000000,4.000000,4.000000,4.000000,4.000000,4.000000,100.000000,,,,,,,,,,,,,,,,
1673442701.093100,43.000000,0.000000,4377.820313,4390.897461,4371.410156,4389.615234,4408.717773,4341.538574,4328.846191,4315.897461,4299.871582,4285.256348,4487.051270,4439.230957,4369.358887,4458.717773,0.000000,3.000000,80.000000,,,,0.000000,4.000000,4.000000,4.000000,4.000000,4.000000,4.000000,4.000000,4.000000,4.000000,4.000000,4.000000,4.000000,4.000000,4.000000,100.000000,,,,,,,,,,,,,,,,
1673442701.100912,44.000000,0.000000,4377.948730,4390.128418,4371.025879,4392.820313,4412.307617,4341.282227,4326.794922,4320.256348,4300.641113,4286.794922,4491.538574,4443.461426,4377.307617,4462.436035,0.000000,3.000000,80.000000,,,,0.000000,4.000000,4.000000,4.000000,4.000000,4.000000,4.000000,4.000000,4.000000,4.000000,4.000000,4.000000,4.000000,4.000000,4.000000,100.000000,,,,,,,,,,,,,,,,
1673442701.108725,45.000000,0.000000,4371.153809,4381.025879,4365.128418,4387.307617,4407.307617,4338.974121,4324.743652,4319.230957,4297.948730,4280.512695,4490.384766,4434.743652,4370.897461,4458.974121,0.000000,3.000000,80.000000,,,,0.000000,4.000000,4.000000,4.000000,4.000000,4.000000,4.000000,4.000000,4.000000,4.000000,4.000000,4.000000,4.000000,4.000000,4.000000,100.000000,,,,,,,,,,,,,,,,
1673442701.116537,46.000000,0.000000,4367.948730,4380.897461,4367.436035,4385.128418,4400.897461,4337.436035,4326.153809,4318.717773,4299.230957,4277.563965,4479.743652,4430.641113,4361.538574,4453.974121,0.000000,3.000000,80.000000,,,,0.000000,4.000000,4.000000,4.000000,4.000000,4.000000,4.000000,4.000000,4.000000,4.000000,4.000000,4.000000,4.000000,4.000000,4.000000,100.000000,,,,,,,,,,,,,,,,
1673442701.124350,47.000000,0.000000,4372.051270,4384.487305,4372.051270,4389.743652,4402.563965,4335.128418,4327.051270,4321.153809,4299.743652,4279.871582,4479.358887,4439.102539,4363.589844,4454.615234,0.000000,3.000000,80.000000,,,,0.000000,4.000000,4.000000,4.000000,4.000000,4.000000,4.000000,4.000000,4.000000,4.000000,4.000000,4.000000,4.000000,4.000000,4.000000,100.000000,,,,,,,,,,,,,,,,
1673442701.132162,48.000000,0.000000,4377.307617,4379.871582,4372.307617,4390.384766,4403.205078,4333.846191,4330.641113,4323.461426,4298.077148,4283.077148,4491.025879,4443.846191,4372.307617,4458.589844,0.000000,3.000000,80.000000,,,,0.000000,4.000000,4.000000,4.000000,4.000000,4.000000,4.000000,4.000000,4.000000,4.000000,4.000000,4.000000,4.000000,4.000000,4.000000,100.000000,,,,,,,,,,,,,,,,
1673442701.139975,49.000000,0.000000,4378.974121,4376.922852,4373.846191,4386.666504,4401.410156,4336.410156,4335.256348,4325.512695,4297.563965,4284.487305,4491.666504,4443.846191,4372.692383,4462.820313,0.000000,3.000000,80.000000,,,,0.000000,4.000000,4.000000,4.000000,4.000000,4.000000,4.000000,4.000000,4.000000,4.000000,4.000000,4.000000,4.000000,4.000000,4.000000,100.000000,,,,,,,,,,,,,,,,
1673442701.147787,50.000000,0.000000,4371.538574,4372.563965,4370.769043,4381.025879,4403.077148,4334.487305,4335.384766,4326.794922,4298.333496,4281.025879,4482.051270,4441.538574,4363.846191,4459.358887,0.000000,3.000000,80.000000,,,,0.000000,4.000000,4.000000,4.000000,4.000000,4.000000,4.000000,4.000000,4.000000,4.000000,4.000000,4.000000,4.000000,4.000000,4.000000,100.000000,,,,,,,,,,,,,,,,
1673442701.155600,51.000000,0.000000,4365.000000,4366.153809,4363.974121,4378.717773,4400.769043,4329.743652,4333.333496,4325.512695,4292.948730,4273.333496,4473.205078,4432.051270,4356.666504,4451.025879,0.000000,3.000000,80.000000,,,,0.000000,4.000000,4.000000,4.000000,4.000000,4.000000,4.000000,4.000000,4.000000,4.000000,4.000000,4.000000,4.000000,4.000000,4.000000,100.000000,,,,,,,,,,,,,,,,
1673442701.163412,52.000000,0.000000,4370.897461,4372.179688,4367.307617,4386.153809,4399.358887,4332.436035,4334.743652,4328.589844,4292.563965,4276.282227,4474.615234,4434.871582,4361.025879,4453.077148,0.000000,3.000000,80.000000,,,,0.000000,4.000000,4.000000,4.000000,4.000000,4.000000,4.000000,4.000000,4.000000,4.000000,4.000000,4.000000,4.000000,4.000000,4.000000,100.000000,,,,,,,,,,,,,,,,
1673442701.171225,53.000000,0.000000,4376.666504,4378.461426,4374.102539,4388.205078,4405.641113,4336.410156,4336.410156,4333.333496,4301.794922,4285.641113,4487.051270,4447.692383,4370.000000,4461.666504,0.000000,3.000000,80.000000,,,,0.000000,4.000000,4.000000,4.000000,4.000000,4.000000,4.000000,4.000000,4.000000,4.000000,4.000000,4.000000,4.000000,4.000000,4.000000,100.000000,,,,,,,,,,,,,,,,
1673442701.179037,54.000000,0.000000,4372.436035,4371.282227,4371.025879,4378.717773,4406.282227,4334.743652,4333.077148,4330.128418,4301.922852,4284.230957,4492.948730,4445.384766,4373.205078,4462.436035,0.000000,3.000000,80.000000,,,,0.000000,4.000000,4.000000,4.000000,4.000000,4.000000,4.000000,4.000000,4.000000,4.000000,4.000000,4.000000,4.000000,4.000000,4.000000,100.000000,,,,,,,,,,,,,,,,
1673442701.186850,55.000000,0.000000,4370.128418,4366.666504,4365.384766,4378.205078,4402.436035,4337.820313,4332.051270,4328.974121,4296.794922,4283.589844,4488.717773,4438.846191,4373.974121,4459.743652,0.000000,3.000000,80.000000,,,,0.000000,4.000000,4.000000,4.000000,4.000000,4.000000,4.000000,4.000000,4.000000,4.000000,4.000000,4.000000,4.000000,4.000000,4.000000,100.000000,,,,,,,,,,,,,,,,
1673442701.194662,56.000000,0.000000,4374.743652,4374.871582,4368.589844,4389.487305,4407.179688,4344.615234,4335.512695,4332.179688,4297.820313,4290.128418,4491.538574,4445.000000,4381.666504,4462.948730,0.000000,3.000000,80.000000,,,,0.000000,4.000000,4.000000,4.000000,4.000000,4.000000,4.000000,4.000000,4.000000,4.000000,4.000000,4.000000,4.000000,4.000000,4.000000,100.000000,,,,,,,,,,,,,,,,
1673442701.202475,57.000000,0.000000,4372.307617,4377.692383,4367.307617,4389.487305,4409.487305,4342.436035,4332.820313,4325.000000,4299.743652,4290.256348,4495.128418,4439.358887,4385.769043,4463.461426,0.000000,3.000000,80.000000,,,,0.000000,4.000000,4.000000,4.000000,4.000000,4.000000,4.000000,4.000000,4.000000,4.000000,4.000000,4.000000,4.000000,4.000000,4.000000,100.000000,,,,,,,,,,,,,,,,
1673442701.210287,58.000000,0.000000,4364.487305,4366.410156,4355.641113,4378.077148,4403.333496,4338.846191,4325.384766,4316.794922,4297.436035,4281.922852,4489.487305,4423.974121,4376.282227,4457.179688,0.000000,3.000000,80.000000,,,,0.000000,4.000000,4.000000,4.000000,4.000000,4.000000,4.000000,4.000000,4.000000,4.000000,4.000000,4.000000,4.000000,4.000000,4.000000,100.000000,,,,,,,,,,,,,,,,
1673442701.218100,59.000000,0.000000,4368.205078,4365.897461,4358.461426,4379.871582,4405.897461,4342.179688,4324.487305,4322.436035,4297.436035,4282.436035,4487.563965,4431.410156,4375.000000,4457.436035,0.000000,3.000000,80.000000,,,,0.000000,4.000000,4.000000,4.000000,4.000000,4.000000,4.000000,4.000000,4.000000,4.000000,4.000000,4.000000,4.000000,4.000000,4.000000,100.000000,,,,,,,,,,,,,,,,
1673442701.225912,60.000000,0.000000,4378.717773,4379.487305,4376.666504,4393.717773,4413.077148,4342.436035,4327.179688,4329.230957,4305.256348,4290.384766,4492.820313,4446.666504,4388.077148,4469.743652,0.000000,3.000000,80.000000,,,,0.000000,4.000000,4.000000,4.000000,4.000000,4.000000,4.000000,4.000000,4.000000,4.000000,4.000000,4.000000,4.000000,4.000000,4.000000,100.000000,,,,,,,,,,,,,,,,
1673442701.233725,61.000000,0.000000,4381.282227,4378.846191,4380.512695,4397.179688,4412.436035,4340.641113,4325.641113,4329.871582,4311.922852,4290.384766,4496.153809,4450.000000,4388.717773,4476.410156,0.000000,3.000000,80.000000,,,,0.000000,4.000000,4.000000,4.000000,4.000000,4.000000,4.000000,4.000000,4.000000,4.000000,4.000000,4.000000,4.000000,4.000000,4.000000,100.000000,,,,,,,,,,,,,,,,
1673442701.241537,62.000000,0.000000,4376.922852,4368.205078,4367.948730,4391.410156,4409.615234,4342.179688,4324.615234,4329.102539,4304.743652,4284.358887,4492.692383,4444.487305,4378.205078,4466.410156,0.000000,3.000000,80.000000,,,,0.000000,4.000000,4.000000,4.000000,4.000000,4.000000,4.000000,4.000000,4.000000,4.000000,4.000000,4.000000,4.000000,4.000000,4.000000,100.000000,,,,,,,,,,,,,,,,
1673442701.249350,63.000000,0.000000,4373.333496,4372.948730,4363.717773,4389.743652,4408.717773,4337.307617,4325.256348,4321.922852,4292.692383,4275.769043,4482.179688,4436.282227,4373.846191,4458.846191,0.000000,3.000000,80.000000,,,,0.000000,4.000000,4.000000,4.000000,4.000000,4.000000,4.000000,4.000000,4.000000,4.000000,4.000000,4.000000,4.000000,4.000000,4.000000,100.000000,,,,,,,,,,,,,,,,
1673442701.257162,64.000000,0.000000,4374.102539,4388.077148,4369.871582,4395.128418,4410.641113,4332.820313,4323.717773,4311.153809,4292.563965,4269.615234,4472.563965,4434.102539,4367.563965,4459.358887,0.000000,3.000000,80.000000,,,,0.000000,4.000000,4.000000,4.000000,4.000000,4.000000,4.000000,4.000000,4.000000,4.000000,4.000000,4.000000,4.000000,4.000000,4.000000,100.000000,,,,,,,,,,,,,,,,
1673442701.264975,65.000000,0.000000,4376.794922,4393.205078,4373.589844,4396.025879,4410.641113,4341.410156,4324.487305,4310.769043,4295.512695,4272.436035,4475.897461,4440.256348,4359.615234,4460.256348,0.000000,3.000000,80.000000,,,,0.000000,4.000000,4.000000,4.000000,4.000000,4.000000,4.000000,4.000000,4.000000,4.000000,4.000000,4.000000,4.000000,4.000000,4.000000,100.000000,,,,,,,,,,,,,,,,
1673442701.272787,66.000000,0.000000,4382.179688,4390.897461,4378.205078,4396.282227,4413.077148,4348.846191,4327.307617,4318.461426,4298.717773,4283.077148,4489.358887,4449.487305,4370.128418,4467.692383,0.000000,3.000000,80.000000,,,,0.000000,4.000000,4.000000,4.000000,4.000000,4.000000,4.000000,4.000000,4.000000,4.000000,4.000000,4.000000,4.000000,4.000000,4.000000,100.000000,,,,,,,,,,,,,,,,
1673442701.280600,67.000000,0.000000,4388.846191,4391.922852,4382.179688,4401.538574,4416.410156,4344.358887,4322.948730,4323.333496,4306.794922,4291.282227,4497.692383,4454.358887,4385.128418,4480.128418,0.000000,3.000000,80.000000,,,,0.000000,4.000000,4.000000,4.000000,4.000000,4.000000,4.000000,4.000000,4.000000,4.000000,4.000000,4.000000,4.000000,4.000000,4.000000,100.000000,1.000000,100.000000,4.000000,4.000000,4.000000,4.000000,4.000000,4.000000,4.000000,4.000000,4.000000,4.000000,4.000000,4.000000,4.000000,4.000000
1673442701.288412,68.000000,0.000000,4386.282227,4393.974121,4377.820313,4398.077148,4414.615234,4341.666504,4318.333496,4327.179688,4310.256348,4291.666504,4495.641113,4449.871582,4383.461426,4476.282227,0.000000,3.000000,80.000000,,,,0.000000,4.000000,4.000000,4.000000,4.000000,4.000000,4.000000,4.000000,4.000000,4.000000,4.000000,4.000000,4.000000,4.000000,4.000000,100.000000,,,,,,,,,,,,,,,,
1673442701.296225,69.000000,0.000000,4378.461426,4391.794922,4372.436035,4390.256348,4412.563965,4345.512695,4324.487305,4329.615234,4309.743652,4295.256348,4492.820313,4441.922852,4381.153809,4467.051270,0.000000,3.000000,80.000000,,,,0.000000,4.000000,4.000000,4.000000,4.000000,4.000000,4.000000,4.000000,4.000000,4.000000,4.000000,4.000000,4.000000,4.000000,4.000000,100.000000,,,,,,,,,,,,,,,,
1673442701.304037,70.000000,0.000000,4377.692383,4385.512695,4371.153809,4390.769043,4412.436035,4343.717773,4324.230957,4325.512695,4307.051270,4298.846191,4494.743652,4442.948730,4385.128418,4468.974121,0.000000,3.000000,80.000000,,,,0.000000,4.000000,4.000000,4.000000,4.000000,4.000000,4.000000,4.000000,4.000000,4.000000,4.000000,4.000000,4.000000,4.000000,4.000000,100.000000,,,,,,,,,,,,,,,,
1673442701.311850,71.000000,0.000000,4376.666504,4381.025879,4368.333496,4392.692383,4411.794922,4339.871582,4317.179688,4315.384766,4295.128418,4289.358887,4491.153809,4442.692383,4382.051270,4466.153809,0.000000,3.000000,80.000000,,,,0.000000,4.000000,4.000000,4.000000,4.000000,4.000000,4.000000,4.000000,4.000000,4.000000,4.000000,4.000000,4.000000,4.000000,4.000000,100.000000,,,,,,,,,,,,,,,,
1673442701.319662,72.000000,0.000000,4371.538574,4379.102539,4365.512695,4389.743652,4411.153809,4342.051270,4321.282227,4309.102539,4285.897461,4276.025879,4481.410156,4432.948730,4376.538574,4459.487305,0.000000,3.000000,80.000000,,,,0.000000,4.000000,4.000000,4.000000,4.000000,4.000000,4.000000,4.000000,4.000000,4.000000,4.000000,4.000000,4.000000,4.000000,4.000000,100.000000,,,,,,,,,,,,,,,,
1673442701.327475,73.000000,0.000000,4368.077148,4371.922852,4364.871582,4383.846191,4409.230957,4337.948730,4324.230957,4312.436035,4289.615234,4270.641113,4474.871582,4426.282227,4370.256348,4457.692383,0.000000,3.000000,80.000000,,,,0.000000,4.000000,4.000000,4.000000,4.000000,4.000000,4.000000,4.000000,4.000000,4.000000,4.000000,4.000000,4.000000,4.000000,4.000000,100.000000,,,,,,,,,,,,,,,,
1673442701.335287,74.000000,0.000000,4369.230957,4364.871582,4362.692383,4378.077148,4406.794922,4329.102539,4320.256348,4316.666504,4292.563965,4274.230957,4471.153809,4425.897461,4365.769043,4457.820313,0.000000,3.000000,80.000000,,,,0.000000,4.000000,4.000000,4.000000,4.000000,4.000000,4.000000,4.000000,4.000000,4.000000,4.000000,4.000000,4.000000,4.000000,4.000000,100.000000,,,,,,,,,,,,,,,,
1673442701.343100,75.000000,0.000000,4374.871582,4369.743652,4367.051270,4382.948730,4410.000000,4329.230957,4323.974121,4317.692383,4292.692383,4281.794922,4475.897461,4434.615234,4372.051270,4463.205078,0.000000,3.000000,80.000000,,,,0.000000,4.000000,4.000000,4.000000,4.000000,4.000000,4.000000,4.000000,4.000000,4.000000,4.000000,4.000000,4.000000,4.000000,4.000000,100.000000,,,,,,,,,,,,,,,,
1673442701.350912,76.000000,0.000000,4379.487305,4377.820313,4375.256348,4393.333496,4412.051270,4336.538574,4328.461426,4320.128418,4294.743652,4282.051270,4485.897461,4445.256348,4381.153809,4467.051270,0.000000,3.000000,80.000000,,,,0.000000,4.000000,4.000000,4.000000,4.000000,4.000000,4.000000,4.000000,4.000000,4.000000,4.000000,4.000000,4.000000,4.000000,4.000000,100.000000,,,,,,,,,,,,,,,,
1673442701.358725,77.000000,0.000000,4376.025879,4373.589844,4370.128418,4387.820313,4407.307617,4340.256348,4324.615234,4321.025879,4292.692383,4277.820313,4488.846191,4443.205078,4381.025879,4465.128418,0.000000,3.000000,80.000000,,,,0.000000,4.000000,4.000000,4.000000,4.000000,4.000000,4.000000,4.000000,4.000000,4.000000,4.000000,4.000000,4.000000,4.000000,4.000000,100.000000,,,,,,,,,,,,,,,,
1673442701.366537,78.000000,0.000000,4372.436035,4363.717773,4363.333496,4376.666504,4407.051270,4342.948730,4327.820313,4323.717773,4294.230957,4286.666504,4488.205078,4439.487305,4382.692383,4468.717773,0.000000,3.000000,80.000000,,,,0.000000,4.000000,4.000000,4.000000,4.000000,4.000000,4.000000,4.000000,4.000000,4.000000,4.000000,4.000000,4.000000,4.000000,4.000000,100.000000,,,,,,,,,,,,,,,,
1673442701.374350,79.000000,0.000000,4376.922852,4365.769043,4368.333496,4380.256348,4408.077148,4345.512695,4337.307617,4328.077148,4301.794922,4295.641113,4492.307617,4445.128418,4389.230957,4476.282227,0.000000,3.000000,80.000000,,,,0.000000,4.000000,4.000000,4.000000,4.000000,4.000000,4.000000,4.000000,4.000000,4.000000,4.000000,4.000000,4.000000,4.000000,4.000000,100.000000,,,,,,,,,,,,,,,,
1673442701.382162,80.000000,0.000000,4373.846191,4367.051270,4367.436035,4383.846191,4401.794922,4338.974121,4331.794922,4326.153809,4297.820313,4286.538574,4491.794922,4445.256348,4387.692383,4473.333496,0.000000,3.000000,80.000000,,,,0.000000,4.000000,4.000000,4.000000,4.000000,4.000000,4.000000,4.000000,4.000000,4.000000,4.000000,4.000000,4.000000,4.000000,4.000000,100.000000,,,,,,,,,,,,,,,,
1673442701.389975,81.000000,0.000000,4368.333496,4362.307617,4363.461426,4381.538574,4398.205078,4330.769043,4323.461426,4324.487305,4291.025879,4282.820313,4488.589844,4441.282227,4386.282227,4469.230957,0.000000,3.000000,80.000000,,,,0.000000,4.000000,4.000000,4.000000,4.000000,4.000000,4.000000,4.000000,4.000000,4.000000,4.000000,4.000000,4.000000,4.000000,4.000000,100.000000,,,,,,,,,,,,,,,,
1673442701.397787,82.000000,0.000000,4378.461426,4368.846191,4373.333496,4385.128418,4404.102539,4331.025879,4328.589844,4330.641113,4301.794922,4297.948730,4498.974121,4451.282227,4398.717773,4478.205078,0.000000,3.000000,80.000000,,,,0.000000,4.000000,4.000000,4.000000,4.000000,4.000000,4.000000,4.000000,4.000000,4.000000,4.000000,4.000000,4.000000,4.000000,4.000000,100.000000,,,,,,,,,,,,,,,,
1673442701.405600,83.000000,0.000000,4381.666504,4366.922852,4379.871582,4383.077148,4403.205078,4334.871582,4333.589844,4335.897461,4311.282227,4303.077148,4512.692383,4461.666504,4405.769043,4485.512695,0.000000,3.000000,80.000000,,,,0.000000,4.000000,4.000000,4.000000,4.000000,4.000000,4.000000,4.000000,4.000000,4.000000,4.000000,4.000000,4.000000,4.000000,4.000000,100.000000,,,,,,,,,,,,,,,,
1673442701.413412,84.000000,0.000000,4373.333496,4355.641113,4373.974121,4377.692383,4398.846191,4335.256348,4329.358887,4330.512695,4301.794922,4291.794922,4507.436035,4455.769043,4399.487305,4485.128418,0.000000,3.000000,80.000000,,,,0.000000,4.000000,4.000000,4.000000,4.000000,4.000000,4.000000,4.000000,4.000000,4.000000,4.000000,4.000000,4.000000,4.000000,4.000000,100.000000,,,,,,,,,,,,,,,,
1673442701.421225,85.000000,0.000000,4371.794922,4366.922852,4369.487305,4383.589844,4405.128418,4336.538574,4322.179688,4319.743652,4287.307617,4280.512695,4484.871582,4438.205078,4390.256348,4476.410156,0.000000,3.000000,80.000000,,,,0.000000,4.000000,4.000000,4.000000,4.000000,4.000000,4.000000,4.000000,4.000000,4.000000,4.000000,4.000000,4.000000,4.000000,4.000000,100.000000,,,,,,,,,,,,,,,,
1673442701.429037,86.000000,0.000000,4368.974121,4379.743652,4362.692383,4387.563965,4411.153809,4337.692383,4313.589844,4313.589844,4284.615234,4274.102539,4467.948730,4421.025879,4374.615234,4458.333496,0.000000,3.000000,80.000000,,,,0.000000,4.000000,4.000000,4.000000,4.000000,4.000000,4.000000,4.000000,4.000000,4.000000,4.000000,4.000000,4.000000,4.000000,4.000000,100.000000,,,,,,,,,,,,,,,,
1673442701.436850,87.000000,0.000000,4360.128418,4371.794922,4357.692383,4381.922852,4409.615234,4335.769043,4311.794922,4316.410156,4290.641113,4276.410156,4471.794922,4419.615234,4365.512695,4450.128418,0.000000,3.000000,80.000000,,,,0.000000,4.000000,4.000000,4.000000,4.000000,4.000000,4.000000,4.000000,4.000000,4.000000,4.000000,4.000000,4.000000,4.000000,4.000000,100.000000,,,,,,,,,,,,,,,,
1673442701.444662,88.000000,0.000000,4359.230957,4370.641113,4363.846191,4382.820313,4409.743652,4340.000000,4323.589844,4324.615234,4296.410156,4285.000000,4484.487305,4435.000000,4376.153809,4460.384766,0.000000,3.000000,80.000000,,,,0.000000,4.000000,4.000000,4.000000,4.000000,4.000000,4.000000,4.000000,4.000000,4.000000,4.000000,4.000000,4.000000,4.000000,4.000000,100.000000,,,,,,,,,,,,,,,,
1673442701.452475,89.000000,0.000000,4366.410156,4377.820313,4369.615234,4388.589844,4412.692383,4344.743652,4329.615234,4330.641113,4302.051270,4292.436035,4490.897461,4444.615234,4385.641113,4472.436035,0.000000,3.000000,80.000000,,,,0.000000,4.000000,4.000000,4.000000,4.000000,4.000000,4.000000,4.000000,4.000000,4.000000,4.000000,4.000000,4.000000,4.000000,4.000000,100.000000,,,,,,,,,,,,,,,,
1673442701.460287,90.000000,0.000000,4376.025879,4374.615234,4373.846191,4389.743652,4411.922852,4343.333496,4326.922852,4333.461426,4309.743652,4296.794922,4492.820313,4448.846191,4388.717773,4477.563965,0.000000,3.000000,80.000000,,,,0.000000,4.000000,4.000000,4.000000,4.000000,4.000000,4.000000,4.000000,4.000000,4.000000,4.000000,4.000000,4.000000,4.000000,4.000000,100.000000,,,,,,,,,,,,,,,,
1673442701.468100,91.000000,0.000000,4382.563965,4376.025879,4382.051270,4392.179688,4412.179688,4345.384766,4332.692383,4335.641113,4312.307617,4295.897461,4495.641113,4459.358887,4395.384766,4482.307617,0.000000,3.000000,80.000000,,,,0.000000,4.000000,4.000000,4.000000,4.000000,4.000000,4.000000,4.000000,4.000000,4.000000,4.000000,4.000000,4.000000,4.000000,4.000000,100.000000,,,,,,,,,,,,,,,,
1673442701.475912,92.000000,0.000000,4380.512695,4380.128418,4381.794922,4395.128418,4414.487305,4351.153809,4338.205078,4334.102539,4308.333496,4292.948730,4497.051270,4459.230957,4397.307617,4481.794922,0.000000,3.000000,80.000000,,,,0.000000,4.000000,4.000000,4.000000,4.000000,4.000000,4.000000,4.000000,4.000000,4.000000,4.000000,4.000000,4.000000,4.000000,4.000000,100.000000,,,,,,,,,,,,,,,,
1673442701.483725,93.000000,0.000000,4377.179688,4373.717773,4371.025879,4391.794922,4414.743652,4352.051270,4336.282227,4332.307617,4305.384766,4293.717773,4495.897461,4447.563965,4393.077148,4475.769043,0.000000,3.000000,80.000000,,,,0.000000,4.000000,4.000000,4.000000,4.000000,4.000000,4.000000,4.000000,4.000000,4.000000,4.000000,4.000000,4.000000,4.000000,4.000000,100.000000,,,,,,,,,,,,,,,,
1673442701.491537,94.000000,0.000000,4374.487305,4369.743652,4362.436035,4383.077148,4412.436035,4349.743652,4338.461426,4336.666504,4306.153809,4292.307617,4492.051270,4445.384766,4392.307617,4475.384766,0.000000,3.000000,80.000000,,,,0.000000,4.000000,4.000000,4.000000,4.000000,4.000000,4.000000,4.000000,4.000000,4.000000,4.000000,4.000000,4.000000,4.000000,4.000000,100.000000,,,,,,,,,,,,,,,,
1673442701.499350,95.000000,0.000000,4364.871582,4369.230957,4357.307617,4376.666504,4409.743652,4350.769043,4340.128418,4335.000000,4302.179688,4287.307617,4488.077148,4441.666504,4386.025879,4472.179688,0.000000,3.000000,80.000000,,,,0.000000,4.000000,4.000000,4.000000,4.000000,4.000000,4.000000,4.000000,4.000000,4.000000,4.000000,4.000000,4.000000,4.000000,4.000000,100.000000,,,,,,,,,,,,,,,,
1673442701.507162,96.000000,0.000000,4358.205078,4363.974121,4353.717773,4377.436035,4408.461426,4350.769043,4332.051270,4328.205078,4297.563965,4283.461426,4486.282227,4428.461426,4377.179688,4462.307617,0.000000,3.000000,80.000000,,,,0.000000,4.000000,4.000000,4.000000,4.000000,4.000000,4.000000,4.000000,4.000000,4.000000,4.000000,4.000000,4.000000,4.000000,4.000000,100.000000,,,,,,,,,,,,,,,,
1673442701.514975,97.000000,0.000000,4361.538574,4361.025879,4354.743652,4382.179688,4408.846191,4346.025879,4324.487305,4324.743652,4296.410156,4279.743652,4482.307617,4425.769043,4377.692383,4460.000000,0.000000,3.000000,80.000000,,,,0.000000,4.000000,4.000000,4.000000,4.000000,4.000000,4.000000,4.000000,4.000000,4.000000,4.000000,4.000000,4.000000,4.000000,4.000000,100.000000,,,,,,,,,,,,,,,,
1673442701.522787,98.000000,0.000000,4363.333496,4363.077148,4360.769043,4383.846191,4410.512695,4340.000000,4322.692383,4318.846191,4295.641113,4279.230957,4474.102539,4433.333496,4379.102539,4467.563965,0.000000,3.000000,80.000000,,,,0.000000,4.000000,4.000000,4.000000,4.000000,4.000000,4.000000,4.000000,4.000000,4.000000,4.000000,4.000000,4.000000,4.000000,4.000000,100.000000,,,,,,,,,,,,,,,,
1673442701.530600,99.000000,0.000000,4363.333496,4363.333496,4367.436035,4383.461426,4407.820313,4340.897461,4327.563965,4321.410156,4297.307617,4285.769043,4477.307617,4436.922852,4380.128418,4472.307617,0.000000,3.000000,80.000000,,,,0.000000,4.000000,4.000000,4.000000,4.000000,4.000000,4.000000,4.000000,4.000000,4.000000,4.000000,4.000000,4.000000,4.000000,4.000000,100.000000,,,,,,,,,,,,,,,,
1673442701.538412,100.000000,0.000000,4372.307617,4369.230957,4370.769043,4386.666504,4403.333496,4350.384766,4338.974121,4339.871582,4308.205078,4298.077148,4496.538574,4446.922852,4395.384766,4476.666504,0.000000,3.000000,80.000000,,,,0.000000,4.000000,4.000000,4.000000,4.000000,4.000000,4.000000,4.000000,4.000000,4.000000,4.000000,4.000000,4.000000,4.000000,4.000000,100.000000,,,,,,,,,,,,,,,,
1673442701.546225,101.000000,0.000000,4378.077148,4375.897461,4368.974121,4385.897461,4401.794922,4357.307617,4345.000000,4355.512695,4325.000000,4308.846191,4510.641113,4461.025879,4412.563965,4483.846191,0.000000,3.000000,80.000000,,,,0.000000,4.000000,4.000000,4.000000,4.000000,4.000000,4.000000,4.000000,4.000000,4.000000,4.000000,4.000000,4.000000,4.000000,4.000000,100.000000,,,,,,,,,,,,,,,,
1673442701.554037,102.000000,0.000000,4369.743652,4368.077148,4362.179688,4380.256348,4398.717773,4357.436035,4342.563965,4352.307617,4327.179688,4308.974121,4510.384766,4456.922852,4411.410156,4483.333496,0.000000,3.000000,80.000000,,,,0.000000,4.000000,4.000000,4.000000,4.000000,4.000000,4.000000,4.000000,4.000000,4.000000,4.000000,4.000000,4.000000,4.000000,4.000000,100.000000,,,,,,,,,,,,,,,,
1673442701.561850,103.000000,0.000000,4361.410156,4360.769043,4355.384766,4378.205078,4398.717773,4353.205078,4339.487305,4340.512695,4315.641113,4304.102539,4506.538574,4444.102539,4402.948730,4475.769043,0.000000,3.000000,80.000000,,,,0.000000,4.000000,4.000000,4.000000,4.000000,4.000000,4.000000,4.000000,4.000000,4.000000,4.000000,4.000000,4.000000,4.000000,4.000000,100.000000,,,,,,,,,,,,,,,,
1673442701.569662,104.000000,0.000000,4364.102539,4363.846191,4355.641113,4381.153809,4406.153809,4347.820313,4333.974121,4335.256348,4311.282227,4300.769043,4505.769043,4443.205078,4401.025879,4472.692383,0.000000,3.000000,80.000000,,,,0.000000,4.000000,4.000000,4.000000,4.000000,4.000000,4.000000,4.000000,4.000000,4.000000,4.000000,4.000000,4.000000,4.000000,4.000000,100.000000,,,,,,,,,,,,,,,,
1673442701.577475,105.000000,0.000000,4368.846191,4364.871582,4361.153809,4383.846191,4412.179688,4342.563965,4324.871582,4332.436035,4310.641113,4301.666504,4506.794922,4445.384766,4404.615234,4478.205078,0.000000,3.000000,80.000000,,,,0.000000,4.000000,4.000000,4.000000,4.000000,4.000000,4.000000,4.000000,4.000000,4.000000,4.000000,4.000000,4.000000,4.000000,4.000000,100.000000,,,,,,,,,,,,,,,,
1673442701.585287,106.000000,0.000000,4372.051270,4365.128418,4365.128418,4386.410156,4410.000000,4339.358887,4323.717773,4331.282227,4310.128418,4306.025879,4507.307617,4447.051270,4408.846191,4485.256348,0.000000,3.000000,80.000000,,,,0.000000,4.000000,4.000000,4.000000,4.000000,4.000000,4.000000,4.000000,4.000000,4.000000,4.000000,4.000000,4.000000,4.000000,4.000000,100.000000,,,,,,,,,,,,,,,,
